n v(n)    Re(T)       Im(T)        Mod(T) 
   
0  52  77653.0  0.0  77653.0  
1  101  -354.71906  -1350.1154  1395.9359  
2  12  8.044716  -314.38297  314.48587  
3  75  -232.39432  -287.32907  369.54718  
4  93  -1197.9166  -210.64926  1216.2966  
5  33  625.23206  -108.90287  634.64557  
6  43  440.34302  -334.02444  552.6973  
7  98  -1293.1737  488.58826  1382.3953  
8  55  -133.02565  -419.81003  440.38196  
9  77  -922.0975  -258.2572  957.58057  
10  154  -1284.1029  931.564  1586.421  
11  120  -739.2477  -385.3935  833.6757  
12  86  166.37704  828.9512  845.4829  
13  55  -1480.7714  219.6584  1496.9747  
14  65  -670.2587  411.97745  786.74786  
15  63  418.88284  -141.19226  442.03857  
16  137  1187.1572  -335.375  1233.6201  
17  106  -115.79884  1042.0303  1048.4448  
18  79  -883.0207  455.84305  993.7396  
19  49  -1354.3229  831.4378  1589.1757  
20  97  29.104202  504.84393  505.68216  
21  98  301.27124  743.2188  801.9592  
22  57  708.6645  -1050.8552  1267.4786  
23  112  478.3817  107.54747  490.32184  
24  92  -298.18958  774.06104  829.5104  
25  131  492.64413  -1269.2069  1361.4641  
26  37  242.71051  183.53311  304.29065  
27  74  275.68982  858.94464  902.1035  
28  164  -312.34622  -701.44183  767.8417  
29  97  -2.4783401  -728.1912  728.19543  
30  163  -214.00232  -40.064697  217.7204  
31  120  -517.9377  -203.68686  556.54987  
32  87  -326.02148  -255.25009  414.0563  
33  70  -297.20538  113.362  318.09116  
34  125  -791.2512  612.4173  1000.5665  
35  67  113.09319  356.53915  374.04578  
36  169  -475.54346  -290.15085  557.0719  
37  149  241.48541  849.8179  883.4623  
38  97  -984.2368  1416.098  1724.545  
39  185  -498.81583  727.4835  882.07117  
40  187  -205.45749  -185.22957  276.6275  
41  150  1125.1564  269.5489  1156.9933  
42  87  899.39575  -853.5569  1239.9484  
43  85  -1420.237  -398.0708  1474.969  
44  68  422.78928  -622.1662  752.2244  
45  109  -145.16342  927.7787  939.0664  
46  56  954.1418  217.86456  978.69885  
47  54  431.28586  -518.0247  674.0602  
48  98  -688.91595  -850.795  1094.7407  
49  68  1022.9446  933.6699  1384.9747  
50  126  -479.35532  813.9431  944.60834  
51  124  340.4436  370.2718  502.99408  
52  82  -997.65936  1191.8174  1554.2692  
53  77  -526.1531  -432.69745  681.22253  
54  99  -773.8669  967.21515  1238.699  
55  120  113.23328  725.4111  734.1955  
56  112  868.6612  -398.7314  955.8028  
57  147  -410.61676  242.33093  476.79178  
58  54  -256.7678  1933.7267  1950.6996  
59  82  -896.7308  675.42596  1122.6426  
60  151  756.2272  505.4931  909.6169  
61  116  1183.1835  -810.636  1434.2433  
62  80  -976.8767  -59.337852  978.67725  
63  163  912.5268  -899.07477  1281.031  
64  52  -503.77417  282.03284  577.3482  
65  98  -462.2039  -1205.3147  1290.8973  
66  106  467.88934  374.9015  599.55945  
67  114  -209.6112  -1091.6454  1111.5874  
68  120  -252.42496  -1125.6948  1153.6495  
69  89  316.85452  1379.3914  1415.3153  
70  122  -364.8567  217.24182  424.63443  
71  51  24.450294  -519.2511  519.8264  
72  104  420.56082  -966.3278  1053.8789  
73  75  -354.51788  464.86554  584.622  
74  89  798.26843  302.3412  853.6057  
75  69  1086.5973  312.98413  1130.7753  
76  109  -1072.1577  1739.6611  2043.5125  
77  122  180.68466  -12.654545  181.12726  
78  75  395.1214  314.6751  505.11517  
79  102  437.78476  853.4089  959.1466  
80  149  800.3342  190.94666  822.79736  
81  83  665.709  262.45325  715.5768  
82  83  296.9599  301.64072  423.2875  
83  124  1452.3082  -1913.3823  2402.1306  
84  52  227.70702  -988.0766  1013.9753  
85  80  418.14246  960.4297  1047.5057  
86  77  919.72  1517.1144  1774.1254  
87  111  -752.1383  72.90812  755.6637  
88  51  197.48169  -456.76904  497.63135  
89  101  77.31758  -322.63922  331.77414  
90  73  93.7045  -109.93795  144.45375  
91  117  -32.653343  -405.86053  407.17197  
92  134  221.75058  729.06964  762.0472  
93  66  -738.1854  -137.46758  750.8762  
94  85  928.1569  1726.1816  1959.8925  
95  97  -2110.8694  -920.95  2303.0237  
96  61  1329.2246  599.48926  1458.1582  
97  84  1596.882  602.4289  1706.7374  
98  61  -1611.0101  193.09631  1622.5413  
99  167  -286.16122  -780.2115  831.0344  
100  138  -695.32965  52.86532  697.3364  
101  108  483.06924  817.5698  949.619  
102  116  697.91833  214.28526  730.0741  
103  79  -165.23096  625.7569  647.204  
104  86  474.97095  -713.9856  857.5388  
105  127  170.94235  -296.15045  341.945  
106  101  -237.20984  301.2342  383.41956  
107  116  -162.41415  -277.4183  321.46426  
108  118  -0.4309311  -417.9222  417.92242  
109  101  379.20038  1168.1708  1228.1758  
110  121  -1734.9102  -668.7841  1859.3508  
111  88  545.24854  -593.7988  806.1594  
112  105  -600.4581  184.07822  628.0404  
113  98  -379.34167  -17.389381  379.74005  
114  72  -335.7896  305.6444  454.06296  
115  153  -344.67844  -1520.1472  1558.7336  
116  88  146.30643  450.74896  473.89893  
117  153  100.8949  -902.1714  907.79565  
118  125  -851.24054  -305.04156  904.246  
119  176  -205.39447  1172.4784  1190.3329  
120  132  -1099.9408  771.85443  1343.7369  
121  68  -143.94385  -1361.0372  1368.6279  
122  59  367.7203  -899.44934  971.7136  
123  77  -1971.4979  81.028824  1973.1624  
124  165  618.5414  648.3987  896.1106  
125  83  -47.391636  37.054993  60.158455  
126  85  -600.65326  160.83913  621.81476  
127  34  151.77315  1256.7965  1265.9276  
128  104  -399.80426  1073.4092  1145.4479  
129  37  714.73413  287.83347  770.5148  
130  124  821.13745  147.19559  834.22614  
131  76  -796.90717  521.07886  952.14716  
132  70  -440.3308  -145.42322  463.7231  
133  129  -217.34659  592.57733  631.1794  
134  71  -498.27466  424.2907  654.44653  
135  142  782.28125  853.8923  1158.057  
136  96  -403.67712  601.3322  724.26215  
137  83  -713.04663  676.6522  983.00244  
138  134  -493.9992  -583.70605  764.6882  
139  88  348.38177  -197.62747  400.53275  
140  142  -982.0402  1213.9885  1561.4644  
141  108  642.28625  -520.9023  826.96484  
142  107  1669.4889  126.4246  1674.2689  
143  74  -190.41893  -402.78452  445.52747  
144  114  -409.272  355.06863  541.82776  
145  112  -323.81848  -235.54436  400.4242  
146  88  -397.95062  -422.7175  580.5642  
147  152  69.63707  -1074.4016  1076.656  
148  167  352.68857  -572.2652  672.2177  
149  68  -240.01964  -477.9139  534.8001  
150  42  600.83856  867.3252  1055.1113  
151  117  -1485.4092  136.2062  1491.641  
152  77  -696.7441  -694.66644  983.8769  
153  97  164.93506  171.70827  238.09096  
154  91  -100.17136  579.4072  588.00256  
155  140  1074.6086  -930.6566  1421.5856  
156  188  537.3152  238.53545  587.8833  
157  100  466.9472  -915.3912  1027.6093  
158  107  1707.9623  1202.6425  2088.8955  
159  193  -274.40833  550.3473  614.9651  
160  139  479.08423  -55.324394  482.26807  
161  87  1057.722  -601.46405  1216.7723  
162  61  501.466  -1015.56323  1132.6239  
163  62  60.82186  37.14914  71.26961  
164  104  -699.6382  659.9963  961.8153  
165  64  -296.95554  -385.50647  486.61877  
166  108  79.75501  116.22294  140.95613  
167  59  193.2099  -673.34033  700.51215  
168  47  50.198242  962.43976  963.748  
169  83  -409.38568  -190.83011  451.67773  
170  113  -866.0486  -615.69586  1062.6013  
171  83  -690.04346  -982.44324  1200.5643  
172  93  -283.99118  136.90991  315.27023  
173  154  748.00146  -44.13176  749.30225  
174  141  -359.06702  981.7132  1045.3181  
175  102  14.6477375  -10.817909  18.20943  
176  102  749.28436  -1616.1932  1781.4341  
177  38  -461.264  426.495  628.2217  
178  77  -366.44025  -517.6012  634.1841  
179  105  374.66394  751.64453  839.84674  
180  96  926.03937  -443.26703  1026.6619  
181  57  268.42932  -512.36346  578.4208  
182  105  -873.5006  1485.693  1723.452  
183  57  -159.32542  -249.42822  295.97134  
184  106  193.57718  640.47864  669.09265  
185  65  430.32748  312.67474  531.92786  
186  155  -875.4763  -393.111  959.6849  
187  118  -16.885784  945.10913  945.25995  
188  69  358.5621  -252.07169  438.30005  
189  75  -634.8204  512.0916  815.61926  
190  104  -794.53906  647.3049  1024.8395  
191  122  716.2345  159.02643  733.6765  
192  93  -709.45935  -643.74255  957.9859  
193  197  -961.836  1316.7365  1630.6206  
194  52  992.62744  -618.88983  1169.758  
195  86  506.05603  -657.8257  829.95624  
196  109  619.67773  -236.70691  663.3481  
197  112  667.70087  635.1967  921.57434  
198  76  -122.86427  591.8729  604.49084  
199  132  583.74194  659.1565  880.4783  
200  72  591.7844  399.0576  713.7617  
201  85  1379.5763  555.8069  1487.3304  
202  104  411.91986  -522.31915  665.2032  
203  115  -565.1978  -306.6297  643.0166  
204  130  -272.21344  -144.49612  308.1871  
205  149  -704.7291  119.6653  714.8167  
206  133  317.31943  16.843079  317.7661  
207  67  45.899467  -1258.4474  1259.2842  
208  81  -242.31012  142.9584  281.3384  
209  75  -39.29743  525.6062  527.0732  
210  87  216.12726  479.7334  526.1702  
211  62  -7.5736017  757.88684  757.9247  
212  116  -308.07986  -800.56305  857.7962  
213  121  46.72499  492.68387  494.89453  
214  139  -1004.8605  83.80581  1008.3491  
215  123  -373.4514  128.45605  394.92642  
216  33  398.5279  269.6895  481.2036  
217  75  367.66608  -356.19153  511.90894  
218  158  -307.24875  200.04593  366.63358  
219  59  320.28958  987.5165  1038.159  
220  46  -636.89166  301.65466  704.71735  
221  78  119.89873  -257.15698  283.73477  
222  94  1087.6344  -1245.9963  1653.9213  
223  116  -621.1799  854.6346  1056.5343  
224  64  286.93253  554.279  624.1438  
225  152  -2019.2566  -106.24668  2022.0498  
226  93  61.65929  -406.1894  410.84268  
227  136  1743.985  -419.50958  1793.7313  
228  103  402.49066  -155.72612  431.56616  
229  81  377.29965  -251.33553  453.34818  
230  128  -196.82323  -6.968422  196.94655  
231  127  548.87366  387.1708  671.6871  
232  134  1182.3665  -517.0415  1290.4736  
233  86  920.64  -284.74283  963.6683  
234  56  -856.48926  411.04202  950.0155  
235  56  1742.241  -96.84983  1744.9308  
236  64  -638.8044  1122.596  1291.624  
237  65  1031.2273  -8.491615  1031.2623  
238  115  422.10104  481.4499  640.28375  
239  115  -379.71323  858.1791  938.4314  
240  81  129.71667  -155.30649  202.35248  
241  80  693.4368  -473.28537  839.55566  
242  81  667.02673  -869.51025  1095.889  
243  82  64.88612  -26.647224  70.14474  
244  110  -470.8277  -606.031  767.4323  
245  25  432.60925  -500.15045  661.2876  
246  90  -104.40574  -871.01215  877.24725  
247  80  -1070.5308  171.19814  1084.1332  
248  89  -560.71936  278.95154  626.27484  
249  98  -61.26562  1435.0747  1436.3818  
250  62  812.1635  -449.44214  928.22833  
251  151  -1020.70135  47.593967  1021.81036  
252  49  -116.77618  574.77814  586.52075  
253  131  50.009285  -1831.8562  1832.5387  
254  53  1219.5269  -178.5302  1232.5254  
255  134  -396.53903  109.6609  411.4228  
256  90  -410.4398  -213.54474  462.66855  
257  82  638.98413  7.353798  639.0264  
258  84  -39.843624  343.38608  345.6899  
259  113  -442.03006  967.1139  1063.3438  
260  170  101.58646  715.4378  722.6141  
261  94  -796.60095  92.94273  802.00464  
262  77  -778.89014  96.43437  784.8372  
263  136  -971.9581  -1451.8547  1747.1648  
264  109  -514.76624  642.36273  823.1732  
265  83  1525.4104  -1342.4027  2031.9749  
266  109  297.41797  -68.40413  305.18286  
267  61  -499.14035  299.14032  581.91583  
268  115  -59.022957  -335.32925  340.4841  
269  123  -580.44904  -320.4018  663.0071  
270  72  -1074.2297  -844.7442  1366.5878  
271  131  1016.1924  -860.2879  1331.4437  
272  127  -1873.2549  -77.59033  1874.8611  
273  144  -363.20047  -917.5481  986.8176  
274  49  -1108.2853  -1016.97253  1504.1707  
275  126  -1669.9633  807.91223  1855.1279  
276  81  -399.46436  -723.093  826.0964  
277  117  -454.05963  1749.3639  1807.3307  
278  112  -929.6747  -931.9656  1316.3794  
279  90  -51.765392  -400.5672  403.89816  
280  109  -87.93376  -77.13465  116.97051  
281  91  -151.90843  358.52847  389.38263  
282  92  877.4578  -462.6872  991.97363  
283  92  521.3912  -1252.0511  1356.2747  
284  54  167.68164  -1199.3857  1211.0504  
285  82  777.8473  88.097725  782.8203  
286  76  -93.25599  646.44226  653.1342  
287  75  1164.428  -589.61505  1305.1967  
288  158  -609.7037  1719.8759  1824.7498  
289  148  -920.35175  -525.597  1059.8583  
290  218  479.23553  -961.1087  1073.963  
291  74  -124.279884  561.28076  574.8753  
292  114  -630.69885  -1230.1217  1382.3821  
293  168  -31.127853  -944.57434  945.0871  
294  62  -250.9874  123.042564  279.52484  
295  76  -268.24426  -261.27808  374.46124  
296  95  12.522339  -370.42947  370.64108  
297  102  -727.4059  590.3071  936.7934  
298  96  155.2538  -755.0312  770.82806  
299  143  -138.92792  -776.82526  789.15045  
300  54  -171.00345  367.44614  405.2886  
301  165  -243.53296  821.68756  857.01733  
302  109  -862.1649  -71.63721  865.136  
303  125  515.0509  -118.81601  528.578  
304  91  -816.9318  601.3008  1014.36694  
305  44  -615.547  -69.85768  619.49835  
306  131  938.54944  319.715  991.5103  
307  110  258.1027  -693.7803  740.23517  
308  153  305.80325  822.57794  877.582  
309  53  361.16382  -660.4204  752.7247  
310  137  -1782.9833  -486.9494  1848.2827  
311  126  317.49173  438.10254  541.04974  
312  16  -384.8754  97.734955  397.0909  
313  71  1218.113  1118.8325  1653.9606  
314  211  -597.4411  -576.7781  830.4269  
315  108  -843.6466  -776.8009  1146.804  
316  111  -607.55664  -141.31003  623.7737  
317  111  338.15515  -987.29175  1043.5966  
318  77  -768.3993  1291.1102  1502.4657  
319  66  536.3974  -740.476  914.34503  
320  90  837.3087  -433.1999  942.7343  
321  147  -394.16656  -839.7851  927.68866  
322  124  715.45996  -89.16481  720.9947  
323  135  10.62455  -1472.1006  1472.139  
324  135  30.665733  -1225.2242  1225.6079  
325  97  692.55554  -132.86092  705.1845  
326  96  -211.69196  338.7272  399.43658  
327  81  -5.5223618  423.00018  423.03622  
328  91  58.160522  305.1981  310.6904  
329  158  -110.77556  513.7683  525.575  
330  140  -795.61505  708.22394  1065.1688  
331  82  426.1573  56.36072  429.86807  
332  133  755.0049  -1062.3027  1303.2726  
333  105  -665.1789  -358.65298  755.70825  
334  91  802.93134  430.65878  911.13434  
335  51  -416.86447  246.01387  484.04422  
336  58  -769.9046  -118.311584  778.9421  
337  114  -25.067535  513.15186  513.76373  
338  62  -88.29341  47.05294  100.048515  
339  79  -1026.57  -190.94489  1044.1771  
340  69  -1153.1038  40.115723  1153.8013  
341  68  181.22485  -1437.1089  1448.4905  
342  125  2123.4814  973.0176  2335.7947  
343  107  -184.23404  465.31567  500.46063  
344  62  -661.4596  333.47046  740.764  
345  93  719.1814  -1266.0187  1456.0305  
346  157  -284.3904  487.42648  564.3248  
347  117  -103.625755  1175.311  1179.8705  
348  127  1166.9708  322.03925  1210.5908  
349  65  797.6848  -189.25356  819.828  
350  88  -90.904076  153.10394  178.0572  
351  42  140.78754  323.30304  352.62726  
352  87  -663.5178  -857.3417  1084.1083  
353  5  87.46986  872.30206  876.67664  
354  116  -469.3747  18.425163  469.7362  
355  112  127.47225  -287.0063  314.04105  
356  94  835.05963  -1511.6377  1726.9548  
357  124  804.6071  -825.34125  1152.6407  
358  114  -769.55176  -868.306  1160.2437  
359  27  -882.8196  -783.0464  1180.0559  
360  148  -428.53915  496.39566  655.7854  
361  49  429.9369  146.17752  454.10748  
362  98  -996.9518  -947.11334  1375.1133  
363  92  -1125.2655  305.19223  1165.918  
364  113  166.05096  -789.6451  806.9153  
365  144  -929.26355  -53.5102  930.8029  
366  85  893.29974  264.0078  931.49585  
367  87  1000.6173  -518.06793  1126.7783  
368  107  -456.15857  150.33516  480.29294  
369  126  2419.544  978.6262  2609.9622  
370  25  -323.16913  261.65134  415.81213  
371  134  -804.219  -1179.9491  1427.9524  
372  134  -395.91937  776.63275  871.7285  
373  63  781.58014  227.29955  813.96106  
374  104  -6.1325073  571.613  571.6459  
375  100  464.8242  874.0678  989.97784  
376  55  -948.39435  1157.7957  1496.6438  
377  28  1132.537  -55.038704  1133.8735  
378  123  283.8181  140.27184  316.58948  
379  67  -888.0085  356.49124  956.89343  
380  89  613.7949  132.15065  627.85986  
381  151  -589.1575  848.19464  1032.7345  
382  84  483.6255  -521.76605  711.43054  
383  112  -444.14282  207.9943  490.43295  
384  156  -1051.4641  337.9056  1104.4261  
385  87  -832.1819  646.61914  1053.8705  
386  78  -590.45746  973.6852  1138.7285  
387  79  -349.89807  -485.61877  598.54346  
388  116  -513.7981  261.7106  576.6116  
389  122  -80.31749  -85.17052  117.068  
390  121  -244.30792  205.78786  319.42917  
391  66  -812.3097  -104.27231  818.9748  
392  95  -551.4761  -84.26067  557.8761  
393  102  43.26954  187.79057  192.71106  
394  115  -329.1626  76.442024  337.92218  
395  79  753.33887  107.37896  760.9531  
396  92  657.0742  -531.61816  845.2008  
397  122  -689.9089  548.61053  881.4464  
398  123  285.2197  241.8887  373.9792  
399  133  -987.44617  254.11719  1019.6203  
400  56  -344.99905  -0.8968304  345.0002  
401  90  -986.3263  -256.84317  1019.2193  
402  76  286.3733  -241.68587  374.72885  
403  54  -688.1936  -550.111  881.0406  
404  131  656.89795  533.0066  845.9379  
405  121  753.1818  -106.58543  760.6861  
406  106  -329.78705  -77.63931  338.80283  
407  110  42.744614  -187.99017  192.7885  
408  113  -552.36444  83.0708  558.57605  
409  151  -812.5305  102.137566  818.9248  
410  132  -243.44696  -206.67812  319.34662  
411  61  -80.916275  84.20251  116.77973  
412  122  -513.4155  -263.10803  576.9067  
413  51  -350.86813  483.94742  597.7571  
414  114  -588.57935  -975.853  1139.6117  
415  83  -830.7397  -648.365  1053.8053  
416  97  -1049.7609  -339.74115  1103.3684  
417  77  -441.93222  -208.64882  488.71097  
418  96  483.6068  522.32355  711.82684  
419  124  -586.60474  -850.0858  1032.8364  
420  71  614.6602  -130.98364  628.46155  
421  78  -886.52344  -358.30228  956.1926  
422  86  285.62793  -139.8186  318.01346  
423  83  1132.5889  56.665527  1134.0055  
424  97  -945.7974  -1160.3816  1497.003  
425  143  467.59387  -872.57556  989.9657  
426  118  -4.26606  -570.6367  570.65265  
427  124  782.07666  -224.9456  813.784  
428  26  -394.7237  -775.8659  870.50256  
429  38  -805.9298  1179.1683  1428.272  
430  59  -320.44305  -262.79144  414.41898  
431  34  2422.117  -973.0702  2610.2712  
432  135  -456.63086  -149.72954  480.55246  
433  111  999.36426  521.18536  1127.1039  
434  78  892.06006  -261.72104  929.6607  
435  80  -930.87085  52.756134  932.3646  
436  89  163.58638  790.7299  807.47406  
437  85  -1125.5381  -306.668  1166.5681  
438  120  -998.352  945.59406  1375.0835  
439  125  430.70477  -145.43086  454.59512  
440  110  -427.82614  -496.13647  655.12335  
441  71  -884.1108  782.5869  1180.7177  
442  120  -769.484  867.32574  1159.4652  
443  75  804.5559  827.19336  1153.932  
444  118  832.22766  1512.6346  1726.4607  
445  59  126.32658  285.79144  312.46625  
446  131  -469.27844  -20.883919  469.7429  
447  125  89.25623  -872.35333  876.90765  
448  46  -664.5098  855.54126  1083.2932  
449  101  142.46771  -323.79776  353.7542  
450  128  -89.47518  -153.65485  177.80782  
451  98  798.27893  190.22198  820.63  
452  68  1167.248  -320.5472  1210.4622  
453  115  -102.032234  -1175.4153  1179.8354  
454  106  -283.35132  -486.69528  563.1698  
455  172  716.35077  1267.8583  1456.236  
456  82  -661.38416  -335.57883  741.64825  
457  155  -182.08005  -465.71072  500.0396  
458  90  2125.6685  -967.8852  2335.6516  
459  109  175.85231  1438.136  1448.8475  
460  181  -1154.4718  -42.862427  1155.2672  
461  103  -1026.7426  188.53896  1043.9095  
462  80  -87.72353  -47.656147  99.8325  
