n v(n)    Re(T)       Im(T)        Mod(T) 
   
0  93  79569.0  0.0  79569.0  
1  96  28.7444  27.044256  39.46685  
2  96  -3.0230103  -2.0492764  3.6521397  
3  93  30.731445  -39.63066  50.149887  
4  101  34.904427  -49.6357  60.679665  
5  100  22.862396  -85.46649  88.47152  
6  101  -46.849014  29.708115  55.47434  
7  108  5.0112534  -13.931881  14.80574  
8  103  55.589134  7.209537  56.0547  
9  102  35.98513  79.29788  87.0809  
10  101  -36.534645  8.487107  37.507484  
11  104  -48.673782  -15.287378  51.018047  
12  106  112.1914  -22.151054  114.35725  
13  101  -104.53077  -7.8602333  104.82588  
14  99  -53.7939  -42.49807  68.555595  
15  99  8.720299  6.2550287  10.731682  
16  102  168.15854  -60.739292  178.79193  
17  97  16.448677  -4.0283794  16.934782  
18  99  -51.48889  37.602707  63.757896  
19  100  90.01847  16.729507  91.55982  
20  98  -11.073921  -107.86152  108.4285  
21  98  -94.19417  74.14622  119.875786  
22  93  70.328186  39.017014  80.42625  
23  101  -20.597435  -123.1611  124.87158  
24  99  -16.105148  -33.6278  37.28545  
25  98  20.878311  40.274307  45.36434  
26  99  -39.88658  63.007275  74.571144  
27  100  -45.980965  -115.039406  123.88831  
28  102  -68.40255  -128.46939  145.54482  
29  102  -78.26828  -91.926346  120.732666  
30  97  -186.49347  57.647232  195.19994  
31  97  5.0895233  61.58458  61.79453  
32  96  -102.743805  -64.72825  121.43325  
33  99  86.52292  -65.243355  108.36471  
34  100  -74.93876  9.0632305  75.48483  
35  104  -48.717575  43.689972  65.438644  
36  100  -12.230789  -105.62694  106.332695  
37  100  -107.589226  32.318623  112.338486  
38  102  131.36331  -104.9876  168.16277  
39  102  126.377014  134.17226  184.31859  
40  97  -215.42807  70.27452  226.60045  
41  102  -1.0131836  26.640715  26.659973  
42  100  -266.7027  162.36661  312.23907  
43  101  0.2978592  -103.08447  103.0849  
44  102  -86.8309  -77.711395  116.527534  
45  104  77.388374  130.8465  152.01897  
46  96  37.226364  -110.34892  116.458954  
47  102  -47.69709  29.880108  56.28351  
48  98  -260.62195  99.65245  279.02402  
49  97  -76.07297  -81.84025  111.73595  
50  98  -46.85565  -31.15876  56.27007  
51  100  -79.473694  -128.23091  150.86163  
52  101  -28.232445  109.99768  113.56303  
53  102  -5.8056335  111.0482  111.19986  
54  100  62.20121  -37.630177  72.69814  
55  96  69.08591  16.173569  70.953835  
56  96  -31.864037  -41.044384  51.96112  
57  95  -2.0315857  15.454372  15.587334  
58  102  42.88292  55.10369  69.82379  
59  107  82.14508  -5.3870163  82.32153  
60  103  -37.23407  -12.793194  39.37057  
61  102  -11.652763  -7.3056946  13.753548  
62  98  -60.801697  -6.446106  61.142445  
63  99  -87.065796  -110.935486  141.02176  
64  98  15.490166  2.8193817  15.744655  
65  94  20.825504  150.23878  151.6753  
66  98  139.54883  30.001331  142.73737  
67  97  115.46301  130.33286  174.12167  
68  98  203.32184  -118.821  235.49565  
69  106  83.68198  36.181942  91.16911  
70  108  -97.4929  -58.88488  113.89598  
71  107  -117.68449  81.90291  143.37965  
72  99  89.52417  4.68029  89.64643  
73  98  -250.12556  25.253323  251.39716  
74  103  86.72693  33.42566  92.945335  
75  99  166.01454  -28.811508  168.4961  
76  98  -36.374733  201.87723  205.1281  
77  94  -44.18805  51.390533  67.77589  
78  96  95.020096  42.657333  104.155975  
79  99  61.12681  183.14952  193.0809  
80  99  112.38475  76.5145  135.95882  
81  96  -160.36166  63.27091  172.3922  
82  101  14.984245  58.926243  60.80156  
83  100  44.94044  185.77136  191.12991  
84  102  -132.41245  -26.251228  134.98956  
85  100  -55.003067  103.422806  117.13929  
86  98  -257.11615  -5.4247894  257.17337  
87  100  -56.768692  133.20981  144.80171  
88  101  -17.754501  -13.208473  22.128853  
89  102  122.286  35.922287  127.45304  
90  98  -10.278267  65.534256  66.33537  
91  98  -183.93619  13.59359  184.4378  
92  97  24.327991  43.207184  49.5854  
93  105  173.41083  -127.618126  215.30838  
94  101  24.80307  -33.386436  41.591423  
95  105  58.86031  -87.31871  105.30476  
96  100  -175.14418  -73.86187  190.08171  
97  101  -76.17146  21.286064  79.08975  
98  97  3.4442596  -25.397072  25.629557  
99  100  25.63002  -26.622467  36.95475  
100  99  32.274853  2.9178162  32.40648  
101  95  -75.990295  -32.20627  82.53344  
102  100  -52.30668  174.35951  182.03635  
103  98  -36.770805  154.53128  158.84586  
104  99  -11.017509  105.70809  106.28069  
105  101  3.8428955  -157.41632  157.46323  
106  101  -18.5195  28.032639  33.59763  
107  103  7.6098213  36.00596  36.80134  
108  100  16.852856  14.358658  22.14023  
109  99  53.818546  43.441826  69.16378  
110  99  -27.76831  13.291214  30.78531  
111  97  59.95398  -20.560913  63.38163  
112  95  7.2730255  51.933403  52.44021  
113  92  -9.806828  -47.561188  48.561718  
114  97  -8.459328  25.864105  27.212355  
115  98  -90.38933  116.655396  147.57613  
116  97  17.01136  133.79047  134.86761  
117  101  37.3999  -14.193939  40.002754  
118  99  -21.271347  -7.0381927  22.405499  
119  102  -34.62183  1.7419739  34.665627  
120  100  -75.20491  48.155502  89.301346  
121  101  -44.016525  19.053299  47.96335  
122  103  97.9289  -98.977036  139.23549  
123  100  -7.0133743  13.08757  14.848297  
124  98  1.657093  9.676193  9.81706  
125  93  -2.6294174  62.545998  62.601242  
126  99  56.208687  -6.587372  56.593376  
127  100  -39.436787  23.2025  45.75605  
128  98  -37.874462  -2.3210678  37.945515  
129  98  81.299255  -91.019745  122.04164  
130  103  -143.5022  79.34409  163.97673  
131  102  -2.7571983  -32.742867  32.85875  
132  101  -5.7431755  62.30076  62.564915  
133  96  29.908676  82.747604  87.9869  
134  91  23.801876  6.3787766  24.641796  
135  97  -44.369144  90.88386  101.13603  
136  101  5.407051  39.711983  40.078396  
137  99  9.94009  13.506432  16.769886  
138  94  109.98308  -160.27826  194.38466  
139  100  -38.256416  13.798523  40.668816  
140  97  68.75897  16.457207  70.701035  
141  96  -87.338844  -26.04979  91.14091  
142  95  -98.35526  -12.046951  99.090294  
143  102  16.806839  -47.460846  50.348804  
144  103  -63.67253  17.305176  65.98227  
145  106  10.765839  -29.570053  31.468895  
146  106  -71.582306  -61.71248  94.51167  
147  101  31.022095  23.953278  39.193493  
148  96  -10.920391  -93.267265  93.90441  
149  97  29.807224  -57.49716  64.764145  
150  100  34.695023  40.689537  53.473198  
151  99  16.688526  -23.114754  28.509626  
152  103  -31.262089  -13.243637  33.951614  
153  103  24.65107  -18.915642  31.072123  
154  100  -68.15909  -99.38101  120.508286  
155  100  14.626949  -62.20732  63.903824  
156  98  -93.68358  21.736984  96.17229  
157  99  -92.456375  120.522385  151.90071  
158  94  -101.252716  13.10247  102.09695  
159  97  47.414024  -72.99568  87.042854  
160  94  75.30086  14.984932  76.77739  
161  100  15.482147  -4.29319  16.066374  
162  103  26.044325  88.90386  92.64018  
163  105  53.790657  31.364227  62.26676  
164  100  -15.622591  -20.145866  25.493553  
165  97  40.62548  -23.570007  46.967808  
166  95  -102.59383  -37.51481  109.2376  
167  97  -41.577164  17.948776  45.28597  
168  93  -71.41527  -11.926659  72.40432  
169  98  43.88926  -14.697411  46.284782  
170  99  -32.81524  -6.6514816  33.482563  
171  104  64.84563  110.40242  128.03769  
172  100  22.717615  -79.97146  83.135574  
173  100  -108.21117  -29.685577  112.20914  
174  95  10.582272  -60.07631  61.001205  
175  99  -88.49199  -89.98053  126.20352  
176  100  -20.130772  67.381424  70.32428  
177  103  66.89513  -31.41867  73.90596  
178  104  45.431137  14.099113  47.568615  
179  102  -135.49112  42.084465  141.87651  
180  100  -86.67692  76.64378  115.70289  
181  104  61.641968  95.20325  113.416885  
182  99  -64.3879  -18.446762  66.97824  
183  98  -10.285731  -88.926216  89.5191  
184  93  5.1941824  -5.9486923  7.8972445  
185  101  -29.412947  57.133865  64.26041  
186  98  -100.54809  -29.511124  104.78943  
187  96  -47.015324  18.039818  50.35748  
188  96  -34.150017  82.04099  88.86478  
189  95  50.27584  91.95752  104.80384  
190  102  -133.74583  -98.70598  166.2252  
191  105  28.564604  -16.345634  32.910732  
192  102  -49.7715  -11.222282  51.020992  
193  98  44.777676  72.74617  85.422745  
194  103  42.80595  10.649315  44.11074  
195  99  -33.185143  -27.421219  43.048542  
196  90  -34.268883  42.340412  54.47079  
197  98  -38.5154  -30.951492  49.41084  
198  99  -77.58718  -90.07399  118.88269  
199  103  -19.60755  -12.709633  23.366446  
200  99  37.00754  -6.0498505  37.498783  
201  97  43.420048  88.731094  98.78516  
202  101  2.4224439  11.956673  12.199601  
203  101  60.19871  -146.49867  158.38481  
204  100  67.30717  -40.094612  78.34432  
205  102  54.391663  61.98619  82.466606  
206  104  48.773743  33.02843  58.90463  
207  104  -27.772556  -53.505394  60.283848  
208  101  8.151871  -27.191414  28.387074  
209  104  -47.39404  -59.84236  76.33678  
210  103  57.927658  -2.482895  57.980843  
211  103  -36.404243  -54.106865  65.21366  
212  105  22.606804  -47.339622  52.460533  
213  99  5.294161  39.49035  39.843643  
214  99  -10.435761  -1.6791458  10.569988  
215  97  10.561697  -40.304466  41.665325  
216  102  -32.36648  -36.684494  48.921787  
217  98  40.47568  -83.024956  92.36571  
218  98  114.16416  -40.097733  121.001175  
219  94  -14.011388  -56.96631  58.664124  
220  99  -27.267838  2.0462112  27.344505  
221  99  -39.42354  -28.986282  48.93281  
222  100  -38.00803  -36.266083  52.534172  
223  100  57.725723  -67.163536  88.56184  
224  103  -0.46293068  63.88163  63.88331  
225  100  33.037518  39.545902  51.530148  
226  99  -44.04718  -37.72058  57.99135  
227  96  19.766144  -57.254593  60.570526  
228  102  -0.08333588  70.90074  70.90079  
229  97  48.26506  7.7688675  48.88631  
230  98  9.78426  53.870308  54.751637  
231  98  8.898634  -29.296051  30.617712  
232  96  -84.3675  -43.446976  94.89739  
233  99  40.711224  16.372398  43.880054  
234  100  30.044277  -35.36824  46.406586  
235  96  55.51824  2.10775  55.55824  
236  94  2.5268364  19.789589  19.950256  
237  97  2.534296  -42.089493  42.16572  
238  96  -65.89557  106.619644  125.33944  
239  98  -82.799706  14.338203  84.03199  
240  98  -24.915272  -59.232895  64.25968  
241  97  -2.523838  8.596626  8.95945  
242  98  14.290516  -68.20627  69.687256  
243  103  -3.2271461  -31.572845  31.737345  
244  102  3.518425  -3.2910233  4.8176913  
245  102  -101.231  90.9066  136.0578  
246  102  41.356915  -15.049675  44.01008  
247  103  -17.038113  29.090076  33.712456  
248  101  -67.05188  -35.779205  76.000694  
249  103  1.0659561  -54.302177  54.31264  
250  99  35.886856  22.623962  42.422993  
251  99  30.20895  109.12361  113.227844  
252  102  -1.8196106  -50.76702  50.79962  
253  98  -61.5861  -34.77018  70.7235  
254  99  22.226131  -102.09918  104.4904  
255  101  26.192524  -41.038376  48.684666  
256  102  -53.76393  36.912613  65.215805  
257  103  43.76852  -29.46112  52.760223  
258  102  -113.69142  -14.471481  114.60874  
259  98  -44.597965  -46.311447  64.294075  
260  103  50.27941  -49.024353  70.22397  
261  104  -59.321804  -126.24325  139.48631  
262  101  -31.782204  51.82952  60.798088  
263  97  -54.893955  6.8822937  55.323704  
264  96  61.500275  -62.514984  87.69497  
265  95  -14.55801  38.984104  41.61365  
266  96  -0.14048767  -23.759682  23.760096  
267  99  18.421715  18.594513  26.174711  
268  101  51.692215  11.420311  52.93873  
269  101  -52.25079  5.2578278  52.514664  
270  98  8.043663  33.345737  34.30217  
271  103  -48.959824  -18.083992  52.192863  
272  92  68.7802  -42.581245  80.89424  
273  96  107.186844  21.417004  109.30557  
274  96  -28.388538  46.234314  54.254227  
275  97  -67.2769  -19.848885  70.14385  
276  101  -41.332813  -7.202591  41.955677  
277  98  -56.192112  -67.42534  87.77089  
278  99  -23.440395  -117.09852  119.421585  
279  97  -43.16413  49.501312  65.67741  
280  106  -8.78273  -36.31128  37.358337  
281  103  -67.626236  -47.911964  82.87861  
282  94  29.064518  -12.1356735  31.49636  
283  100  4.0940437  17.52826  18.00003  
284  97  1.8216095  -2.3060455  2.9387252  
285  100  -46.657097  -14.458763  48.846092  
286  98  -48.90575  -58.666412  76.37749  
287  98  24.545082  21.595139  32.692677  
288  101  -5.3256073  -15.782463  16.656778  
289  100  46.353336  3.2732239  46.46876  
290  101  11.29451  18.719566  21.86294  
291  99  -60.633274  -32.613075  68.84771  
292  101  91.23552  11.278175  91.929955  
293  104  -57.275414  42.70585  71.44412  
294  97  -79.16501  -17.463898  81.068405  
295  100  -50.791245  -32.485527  60.29146  
296  98  19.658516  -32.647697  38.10944  
297  98  -97.125175  55.99521  112.1105  
298  102  27.784775  -68.62861  74.03972  
299  101  -18.376972  1.9386978  18.478952  
300  98  43.61624  64.94055  78.2282  
301  102  68.002754  51.440834  85.267426  
302  101  50.682198  87.11075  100.78178  
303  99  -80.02292  58.15986  98.92541  
304  100  -61.156685  -45.198654  76.046425  
305  95  21.62735  3.412983  21.894993  
306  93  -26.212315  -87.9235  91.74763  
307  88  -23.9306  -20.786804  31.698025  
308  98  26.425598  -49.007484  55.678055  
309  101  55.706116  -16.106686  57.9879  
310  97  2.08049  63.55659  63.590633  
311  101  14.054016  42.16906  44.449352  
312  104  -6.757576  -10.505817  12.491478  
313  101  54.60823  51.405563  74.99727  
314  101  37.49662  19.49675  42.262512  
315  99  -17.380074  -11.194675  20.673357  
316  95  1.9519424  18.477612  18.580425  
317  99  -30.177135  -78.978134  84.54706  
318  100  -50.351837  -34.956154  61.29633  
319  102  3.0460587  55.331257  55.41504  
320  102  -59.827507  -43.40077  73.91182  
321  101  45.8584  10.364834  47.01513  
322  101  39.025307  15.28989  41.913666  
323  97  -7.118599  -4.34536  8.34006  
324  96  -8.832268  16.693592  18.886106  
325  95  39.540886  65.119736  76.184395  
326  99  -90.52951  22.162548  93.20284  
327  93  -21.154793  30.629986  37.225277  
328  98  28.062798  12.333893  30.653637  
329  100  13.594551  -27.170906  30.382067  
330  106  -26.89367  27.302914  38.323864  
331  106  -65.263596  -54.56712  85.070015  
332  101  18.769073  -14.532749  23.73771  
333  96  0.19805908  95.99298  95.99319  
334  101  -10.191391  -20.195904  22.621649  
335  106  -33.17902  39.774784  51.79653  
336  106  72.60733  122.18123  142.12698  
337  104  86.45769  -55.26011  102.609024  
338  101  -6.694687  0.737751  6.735214  
339  97  2.9163513  -6.8015633  7.40043  
340  97  47.459045  67.10115  82.188354  
341  99  18.627686  4.03067  19.058777  
342  98  78.202415  8.053619  78.61602  
343  101  32.916878  14.160145  35.83337  
344  100  -17.27877  43.572952  46.873856  
345  99  82.850555  36.666775  90.60169  
346  100  -44.562088  14.091015  46.736885  
347  96  -47.002563  -25.033264  53.25322  
348  98  25.152313  0.36908722  25.155022  
349  99  -1.3351288  -2.4184952  2.7625508  
350  98  23.942642  102.67163  105.426346  
351  94  -38.97273  -19.269073  43.476093  
352  98  20.804283  -54.882534  58.69336  
353  99  19.970589  6.1670914  20.901134  
354  106  43.239456  -20.426125  47.8213  
355  105  -0.69496155  -26.383068  26.39222  
356  100  60.71206  51.89579  79.86944  
357  99  -64.23887  9.619585  64.95513  
358  99  20.401703  -67.66128  70.670204  
359  103  19.120613  4.650608  19.678059  
360  100  -27.494553  7.281702  28.442461  
361  98  15.587082  6.6784325  16.957552  
362  97  13.445755  -25.299427  28.650469  
363  98  57.253677  -3.2691479  57.346935  
364  102  -61.511833  -82.810326  103.15646  
365  100  -70.15609  7.932852  70.603165  
366  101  33.27262  3.8376484  33.493206  
367  103  -45.14756  57.373825  73.00725  
368  103  60.17901  30.59277  67.50874  
369  99  39.61656  29.297512  49.272873  
370  97  2.787117  -31.036903  31.161793  
371  97  92.48137  -2.4670963  92.514275  
372  97  27.458504  25.197006  37.26739  
373  98  -33.88095  72.62051  80.13524  
374  98  -23.974007  12.184179  26.892511  
375  95  34.596115  49.840195  60.67072  
376  100  -85.637344  6.3648357  85.87355  
377  100  -54.92637  73.03467  91.38364  
378  101  -36.90555  18.133554  41.11989  
379  95  8.152367  -31.103783  32.154415  
380  97  -40.62652  -61.10879  73.38119  
381  101  50.33101  22.236418  55.024254  
382  98  -39.370438  31.59931  50.483143  
383  95  -72.769104  -2.7363863  72.82053  
384  100  -61.64715  4.098172  61.783215  
385  98  25.429596  30.63636  39.815212  
386  98  -3.554367  10.57268  11.154151  
387  98  -6.115555  50.219273  50.590267  
388  105  -3.3515167  -2.464425  4.1600547  
389  102  22.204529  -68.11154  71.639534  
390  102  54.88141  -76.76879  94.368515  
391  102  -28.737663  -4.7045393  29.1202  
392  105  47.484077  31.20375  56.819115  
393  99  56.828003  -10.8829975  57.86071  
394  99  -12.813362  -88.8224  89.74186  
395  97  -26.16397  30.32405  40.051235  
396  96  -50.71171  6.8370495  51.17053  
397  99  -9.661789  -66.114334  66.816574  
398  100  98.284966  -45.725174  108.400764  
399  95  -85.54679  -15.242336  86.89409  
400  97  -34.999916  -0.07844083  35.000004  
401  98  -85.44003  14.989119  86.74487  
402  100  98.3029  45.827732  108.46032  
403  103  -10.01104  65.676956  66.435555  
404  98  -50.732784  -7.1121225  51.228874  
405  99  -25.936928  -30.645727  40.148285  
406  103  -12.838051  88.53439  89.46035  
407  101  56.747223  10.747887  57.756077  
408  98  47.595848  -31.186096  56.902874  
409  102  -28.724823  4.538171  29.0811  
410  98  54.918602  76.8254  94.436195  
411  105  21.709259  67.592705  70.99342  
412  104  -3.286377  2.240058  3.9772017  
413  104  -5.9821243  -50.40031  50.754086  
414  105  -3.5400162  -10.75415  11.321814  
415  96  25.353607  -30.807568  39.898766  
416  97  -61.737236  -4.3425455  61.889774  
417  92  -72.72192  2.268403  72.757286  
418  97  -39.273277  -31.83165  50.55338  
419  96  50.384247  -22.428265  55.150696  
420  99  -40.87017  60.72819  73.2003  
421  97  8.16494  30.944218  32.003292  
422  101  -36.927753  -18.594105  41.344887  
423  102  -54.76766  -73.40752  91.5869  
424  101  -85.395584  -6.909916  85.67469  
425  95  34.906967  -49.961266  60.94772  
426  98  -23.738678  -12.4147415  26.789001  
427  102  -33.55476  -72.92043  80.27024  
428  97  27.698402  -25.30482  37.517136  
429  100  92.43011  2.543583  92.465096  
430  103  2.7314835  30.781977  30.90293  
431  99  39.72911  -29.477936  49.470707  
432  98  60.08191  -30.666945  67.455894  
433  99  -45.17611  -57.440887  73.07761  
434  97  33.15963  -4.158552  33.419376  
435  97  -70.27859  -8.293728  70.76628  
436  97  -61.47789  82.67755  103.02965  
437  94  57.259995  3.271803  57.353394  
438  95  13.248375  25.151617  28.42751  
439  99  15.599571  -6.8526535  17.038353  
440  102  -27.55233  -7.5522404  28.56864  
441  101  18.972855  -4.7800217  19.565731  
442  98  20.308914  67.423904  70.41615  
443  100  -64.16539  -10.078495  64.95209  
444  94  60.9383  -51.746563  79.94488  
445  99  -0.70051575  26.359726  26.369032  
446  102  43.34989  20.344933  47.88663  
447  99  19.806023  -6.2723656  20.775492  
448  103  20.837952  54.512245  58.359276  
449  103  -39.035637  18.932507  43.384567  
450  100  24.291183  -102.88619  105.71485  
451  99  -1.3599854  2.2060814  2.5915933  
452  102  25.18747  -0.47026062  25.191858  
453  99  -46.921227  24.760311  53.053505  
454  99  -44.369675  -14.480923  46.672962  
455  94  83.00398  -36.685856  90.74973  
456  93  -17.507545  -43.805283  47.174324  
457  96  33.12494  -14.312702  36.08483  
458  101  78.89777  -8.606224  79.36577  
459  101  18.650978  -4.2926445  19.138594  
460  104  47.55797  -67.279465  82.39106  
461  104  2.9886398  6.570099  7.217906  
