n v(n)    Re(T)       Im(T)        Mod(T) 
   
0  100  79404.0  0.0  79404.0  
1  102  20.941925  -0.6117659  20.95086  
2  101  -5.005913  23.533468  24.059994  
3  100  -31.000504  9.940648  32.5553  
4  101  11.255272  3.7708452  11.870149  
5  92  21.135063  -18.93324  28.375315  
6  96  50.935394  13.1901455  52.615532  
7  98  -27.435608  13.630097  30.634819  
8  100  -11.105797  6.20896  12.723597  
9  100  2.6807098  -28.208788  28.335876  
10  99  28.45752  22.885963  36.51846  
11  101  0.94821167  62.805237  62.812393  
12  103  24.589218  52.692703  58.147663  
13  104  58.93721  18.161983  61.672134  
14  97  -6.3766556  45.56419  46.00823  
15  97  -70.55504  20.274927  73.4104  
16  106  -81.15112  -38.667152  89.892456  
17  103  -22.91085  7.3388615  24.057554  
18  105  -30.124702  -42.115234  51.780216  
19  97  -31.071709  51.742928  60.35546  
20  98  -30.728859  -99.02072  103.67915  
21  98  -59.138542  -121.2787  134.9292  
22  96  -13.919197  21.760334  25.831303  
23  95  -108.202  -75.10055  131.71092  
24  104  -57.645782  3.682745  57.763298  
25  100  -84.96388  -23.714502  88.21133  
26  101  -22.390831  -127.70885  129.65685  
27  99  -114.13653  99.083786  151.14478  
28  96  97.193275  -123.34034  157.03304  
29  95  -14.8934555  88.74379  89.98486  
30  96  -117.04068  -113.39315  162.96173  
31  96  -56.175957  -12.918375  57.642193  
32  101  -2.9943314  227.21474  227.23447  
33  99  -50.48021  13.219112  52.18234  
34  97  14.14669  -66.392914  67.88334  
35  99  72.77577  -26.658762  77.50485  
36  98  77.361206  27.437946  82.08287  
37  98  1.2753983  21.876116  21.913263  
38  100  -16.09652  3.5243778  16.477839  
39  97  4.035614  -104.01378  104.09204  
40  98  -111.41773  -66.676254  129.84465  
41  101  -2.448471  -20.862707  21.005894  
42  102  -94.35206  308.96454  323.05014  
43  101  -23.933128  -59.780186  64.39305  
44  98  63.82338  -139.3088  153.23305  
45  98  96.12241  5.1309586  96.25926  
46  103  131.2486  -114.9847  174.49263  
47  101  -10.068001  -84.16835  84.768364  
48  102  -59.32727  46.71235  75.510056  
49  101  24.882385  -13.867699  28.485893  
50  101  -4.505211  203.25171  203.30164  
51  98  86.189835  -98.87941  131.17097  
52  98  50.994812  -55.737713  75.54577  
53  97  81.27526  101.22958  129.81949  
54  97  25.019943  -88.42903  91.900444  
55  100  -135.96835  28.889503  139.00359  
56  104  29.850994  -12.110149  32.213936  
57  102  69.32714  -123.91524  141.99028  
58  100  174.38956  169.22987  243.00302  
59  97  92.06864  0.25521088  92.069  
60  98  -40.782936  -13.768799  43.044487  
61  96  -27.801048  -40.750694  49.330696  
62  94  -48.90339  -20.41172  52.992264  
63  98  73.091194  -51.067043  89.163704  
64  96  -83.47866  -25.276752  87.221565  
65  105  58.0774  -36.93781  68.828674  
66  102  46.001293  -2.1828384  46.053055  
67  101  -72.963646  23.217163  76.56847  
68  103  114.63272  -19.526283  116.28386  
69  95  7.455353  -51.197346  51.737324  
70  98  82.83658  -15.853703  84.34002  
71  100  123.08003  -183.29475  220.7842  
72  104  24.893196  -118.61163  121.19567  
73  101  171.58559  144.37234  224.24313  
74  101  53.657528  -26.294662  59.75399  
75  97  -20.402695  131.2826  132.85854  
76  96  65.49521  169.69127  181.89214  
77  102  -177.44012  -83.11096  195.93987  
78  96  -136.02814  -21.647274  137.73982  
79  95  -5.7531586  -48.74034  49.07871  
80  99  -6.448723  79.52391  79.78495  
81  99  31.199623  -185.1987  187.80835  
82  94  -145.81996  63.853107  159.18756  
83  102  -36.43434  85.25894  92.71757  
84  100  34.83215  45.21902  57.07923  
85  97  99.56077  5.919918  99.73662  
86  101  104.24234  -81.81807  132.51665  
87  99  50.948265  -163.21426  170.98135  
88  97  91.26767  -35.890144  98.07084  
89  100  -46.50905  20.137123  50.68131  
90  100  -13.778374  71.58304  72.89702  
91  102  -29.633926  56.04924  63.401  
92  101  18.644478  -107.9037  109.502625  
93  107  50.701485  32.225212  60.07583  
94  104  -34.180496  -2.8201447  34.29664  
95  99  128.07272  39.876617  134.13712  
96  99  -1.3715591  64.67706  64.691605  
97  95  86.48469  -69.81799  111.14924  
98  92  -16.27742  -13.675644  21.259766  
99  95  237.0043  -99.47255  257.03275  
100  97  42.01146  -94.15007  103.098  
101  97  -16.290703  -25.698807  30.42722  
102  93  42.617714  -51.719162  67.01598  
103  97  -149.32085  -11.884529  149.79305  
104  96  61.811817  -0.41275024  61.813194  
105  101  -21.802803  -126.18696  128.05667  
106  103  -25.903893  -130.68323  133.22581  
107  99  -55.238197  -19.36473  58.53419  
108  101  -24.392769  41.794685  48.392178  
109  101  104.71821  38.777542  111.66737  
110  99  -17.0792  85.07983  86.77716  
111  98  -76.64493  92.90126  120.43708  
112  105  110.529945  7.9882507  110.81824  
113  104  -93.645515  1.1079025  93.65207  
114  99  -123.40862  25.76175  126.068855  
115  99  -114.73894  -44.21482  122.9633  
116  96  -33.36682  13.433273  35.9694  
117  96  -152.54555  -132.1594  201.83223  
118  97  46.35788  29.085213  54.726616  
119  98  21.48267  -21.399635  30.322426  
120  99  21.32859  20.57949  29.638222  
121  99  21.266117  91.53119  93.969185  
122  102  34.57182  -55.446533  65.34163  
123  108  -6.1461334  13.764084  15.073982  
124  100  -49.15203  7.115532  49.664402  
125  102  22.169994  -90.8106  93.47767  
126  101  -61.935253  80.809654  101.814415  
127  97  -36.336624  55.363213  66.22262  
128  99  77.26811  -2.963562  77.32493  
129  102  34.360725  8.110649  35.304985  
130  101  -17.044216  -53.907608  56.537914  
131  101  29.460384  -27.623894  40.385563  
132  100  -120.27298  44.04924  128.08562  
133  96  91.21126  2.2455978  91.2389  
134  92  3.039112  -1.0259323  3.2076066  
135  95  75.30936  -16.82637  77.16622  
136  100  -107.48021  -86.23982  137.80168  
137  100  1.204361  -71.60503  71.61516  
138  98  -83.45522  0.004005432  83.45522  
139  108  -28.713608  -140.79129  143.68945  
140  100  -33.35357  -97.30193  102.85974  
141  97  31.160606  54.786995  63.02855  
142  103  2.2921753  -36.659546  36.731136  
143  99  71.01981  -44.7726  83.95474  
144  98  32.752033  -30.084763  44.472336  
145  102  42.997093  -99.57808  108.464485  
146  96  117.18123  24.949684  119.80788  
147  98  -2.451088  -79.58305  79.62079  
148  101  83.79809  76.21933  113.27624  
149  103  -53.488388  60.512993  80.76404  
150  101  -1.4653778  52.43579  52.45626  
151  98  -61.16957  -35.664482  70.80729  
152  102  -60.340122  -70.90488  93.104416  
153  94  96.41596  -8.18853  96.76306  
154  95  20.317463  34.11335  39.705414  
155  97  16.824398  -48.524246  51.35818  
156  96  74.88832  10.9094925  75.67878  
157  97  13.757458  -80.90554  82.06689  
158  99  48.479366  41.541714  63.84327  
159  95  -7.79809  -27.079552  28.179998  
160  103  -29.277634  76.353806  81.77459  
161  105  -13.507223  5.8895874  14.735411  
162  98  -32.502445  -0.52516174  32.506687  
163  100  -180.69917  28.919624  182.99873  
164  95  35.138046  -11.044304  36.83285  
165  99  -8.154718  110.70059  111.00054  
166  104  -17.343775  -55.1537  57.81641  
167  98  -55.992096  80.616615  98.153725  
168  102  -130.85919  169.38403  214.04457  
169  106  133.11063  -59.71318  145.89073  
170  103  -125.66987  -14.219086  126.47173  
171  99  3.0757751  19.133842  19.379482  
172  98  -38.573986  -49.689438  62.904633  
173  98  26.818932  41.276062  49.223656  
174  100  27.44275  71.38391  76.477234  
175  99  -62.144135  18.992233  64.98152  
176  100  -22.144634  -6.8132477  23.169056  
177  98  -52.927696  -57.722954  78.31526  
178  97  102.517265  57.51448  117.54874  
179  101  52.612072  20.794586  56.572475  
180  101  -129.48882  13.330368  130.17317  
181  96  -75.140526  90.12097  117.33665  
182  95  -63.406948  18.778244  66.12914  
183  96  12.78603  -1.3115234  12.853118  
184  100  46.364002  -68.81076  82.97314  
185  100  37.31323  76.824265  85.40635  
186  99  7.3269978  47.999817  48.555817  
187  97  -25.952606  11.07637  28.217438  
188  101  4.798584  86.04773  86.18143  
189  100  25.156418  27.843803  37.524963  
190  102  27.71602  -72.43255  77.554184  
191  102  3.8814154  -55.213066  55.349327  
192  103  41.10397  24.471329  47.83704  
193  102  -7.8080497  12.123329  14.420151  
194  100  52.66562  2.9106674  52.74599  
195  99  -39.974335  6.040901  40.428207  
196  95  -4.754428  -30.68032  31.046526  
197  98  24.559858  3.3755798  24.790749  
198  103  44.541363  -10.047119  45.66046  
199  99  32.73811  -29.040016  43.76193  
200  100  54.98922  -41.061966  68.62871  
201  100  72.65723  -20.575882  75.514496  
202  98  -89.41737  -58.007805  106.585045  
203  99  -33.59563  27.357712  43.325638  
204  101  10.843323  -128.12859  128.5866  
205  96  66.184006  -12.113243  67.28338  
206  98  45.462814  -0.75966644  45.469162  
207  103  -13.403525  34.82598  37.316265  
208  104  70.47911  -18.123459  72.77201  
209  98  24.414951  -0.602211  24.422377  
210  100  -31.773449  2.7674637  31.893745  
211  98  -65.57261  14.1117325  67.0739  
212  95  18.218449  -35.099915  39.546375  
213  98  18.386055  -46.220863  49.743496  
214  99  -26.010017  -12.458946  28.840014  
215  97  44.670807  -62.730133  77.01007  
216  95  -71.809135  23.13919  75.44517  
217  97  -56.19889  -53.783356  77.78795  
218  99  9.636832  -11.598686  15.079724  
219  103  52.71152  -79.04371  95.00743  
220  103  -41.52788  37.35871  55.859093  
221  99  126.758026  39.61973  132.80557  
222  98  2.1482868  25.938301  26.027113  
223  101  -6.461426  33.332508  33.953  
224  101  33.548615  -52.755905  62.519558  
225  97  43.865868  54.454857  69.925285  
226  96  -49.58513  18.38781  52.88475  
227  102  70.895775  -38.839973  80.83783  
228  106  114.59701  82.459526  141.18091  
229  100  14.087704  41.829914  44.138477  
230  99  -42.232716  49.413223  65.00207  
231  99  95.89102  -67.184204  117.0846  
232  96  1.6849422  15.005074  15.09938  
233  96  1.3415222  -34.419586  34.44572  
234  94  -27.27316  40.476406  48.807426  
235  97  24.365292  67.856964  72.098785  
236  96  24.704847  -19.280838  31.33816  
237  102  22.07603  14.099304  26.194302  
238  100  -88.85132  -35.10016  95.53313  
239  96  19.90248  73.76872  76.406364  
240  99  61.89547  -3.222229  61.979286  
241  100  -21.66566  21.60691  30.598356  
242  104  138.21094  24.58731  140.3809  
243  104  0.9298248  -92.84367  92.84833  
244  99  52.379925  17.545502  55.240395  
245  98  -166.92535  94.862816  191.99747  
246  100  -7.814659  86.15227  86.50597  
247  98  13.264534  59.794643  61.24824  
248  97  39.801666  22.979652  45.95908  
249  101  -16.738323  -41.592545  44.834267  
250  103  11.542641  -14.288803  18.368519  
251  101  -26.81783  -47.911476  54.906334  
252  102  -102.9118  -13.209175  103.756065  
253  95  -97.34111  -30.187973  101.914696  
254  97  60.096935  -65.21075  88.679665  
255  96  36.680897  8.853172  37.73416  
256  99  -19.273064  44.03473  48.067745  
257  102  -58.081993  -11.912727  59.29107  
258  100  108.287415  25.642567  111.2821  
259  99  122.21174  -12.518555  122.85122  
260  101  67.34399  17.021103  69.461716  
261  101  -105.367584  -47.32209  115.50631  
262  98  9.266674  0.029762268  9.266722  
263  97  -74.07446  78.94032  108.25249  
264  102  12.309841  -33.178764  35.388737  
265  95  -29.979008  0.3577652  29.981142  
266  99  -6.975296  25.0919  26.04339  
267  98  18.677235  -6.9359207  19.923506  
268  99  -40.681873  18.095207  44.524727  
269  98  14.818825  55.306595  57.25746  
270  103  70.71079  -29.042877  76.44282  
271  102  33.49367  11.897072  35.543865  
272  102  -88.36043  -26.586327  92.2735  
273  95  -101.559235  -7.818985  101.85978  
274  98  48.73287  -83.80948  96.94803  
275  99  -90.709625  -14.818863  91.9121  
276  98  -8.562855  -32.830322  33.92864  
277  95  -76.065216  -74.064255  106.16699  
278  99  20.911156  8.931137  22.73855  
279  95  -23.274105  41.049034  47.187996  
280  99  29.974266  -68.45713  74.73176  
281  101  -50.37256  -84.67564  98.525925  
282  102  5.767948  -34.56279  35.04077  
283  108  -92.13382  -58.574738  109.17711  
284  104  -25.231277  -45.17681  51.74516  
285  100  -31.382006  3.8637466  31.618963  
286  99  -22.96497  -30.737549  38.369087  
287  97  -10.19672  22.175442  24.407444  
288  99  -33.565506  3.969757  33.79944  
289  97  53.792744  29.5201  61.360374  
290  98  -77.75751  -8.239204  78.1928  
291  100  11.988861  17.713112  21.388948  
292  95  -31.847542  30.61005  44.172855  
293  100  20.308525  8.7515335  22.113922  
294  101  86.92622  17.60202  88.69047  
295  101  -11.312656  -58.743187  59.822556  
296  101  -11.924805  -13.988541  18.38152  
297  101  25.486565  28.574677  38.289387  
298  102  -5.3799706  113.70448  113.83169  
299  100  24.055298  -17.563538  29.784815  
300  100  85.95755  -108.139046  138.14034  
301  98  -46.07447  -55.937904  72.47004  
302  94  1.2713394  33.21161  33.235935  
303  98  -15.077087  37.607773  40.517445  
304  97  29.319374  10.688854  31.207006  
305  96  19.925362  3.827835  20.289711  
306  96  13.416298  -26.200325  29.435593  
307  100  -41.609375  -12.814697  43.53799  
308  100  14.902321  10.518631  18.240635  
309  96  -9.325867  -7.175522  11.766898  
310  94  -22.681953  -61.376072  65.43312  
311  91  12.416412  -39.38967  41.300285  
312  98  -23.696129  -13.042126  27.048172  
313  102  -65.68228  -26.791576  70.93624  
314  105  40.943993  28.26067  49.750134  
315  105  -41.557865  -15.65155  44.407513  
316  106  46.640457  10.130703  47.728016  
317  104  39.37159  18.907238  43.676147  
318  108  -66.83613  19.18454  69.53499  
319  99  26.121819  11.231327  28.433996  
320  92  -50.24698  -134.26846  143.3624  
321  95  84.20308  -32.138943  90.128075  
322  100  -69.033676  -7.069454  69.39471  
323  99  -7.367981  -15.889534  17.514692  
324  99  22.983543  -8.972576  24.672869  
325  93  -14.606377  76.14949  77.537674  
326  101  -65.25521  -22.614498  69.06271  
327  103  59.83336  21.024239  63.41963  
328  103  16.017899  -9.203487  18.47369  
329  102  -102.978874  38.48207  109.93416  
330  102  6.0893784  32.480762  33.046642  
331  102  -13.401543  16.83422  21.517258  
332  97  13.596733  42.16867  44.306522  
333  96  1.8110657  28.159164  28.217344  
334  94  35.855164  -60.255524  70.11648  
335  94  -72.22071  -25.7873  76.68648  
336  99  19.57557  0.030792236  19.575594  
337  101  -39.23743  -5.157486  39.574936  
338  99  -50.097588  39.95892  64.08185  
339  98  -42.202866  11.971146  43.867874  
340  99  -25.291595  -0.97388077  25.310339  
341  97  38.95112  16.878292  42.450752  
342  96  -28.874283  51.357323  58.91773  
343  97  60.957764  43.21242  74.72056  
344  102  -11.950485  -15.886765  19.879723  
345  100  1.752121  -25.657398  25.717154  
346  102  15.859978  -0.031085968  15.860008  
347  101  -2.2668304  30.296234  30.38092  
348  99  -16.523804  42.04639  45.17671  
349  96  -54.118332  54.646717  76.90941  
350  101  -61.774586  -55.612946  83.11979  
351  102  15.446243  25.171162  29.532589  
352  94  -29.123493  31.392761  42.82153  
353  95  23.417648  5.998497  24.17371  
354  105  15.850655  42.24947  45.12495  
355  100  -62.575073  -37.66149  73.03443  
356  99  52.96338  6.7629128  53.393414  
357  104  4.4613647  1.614994  4.7446795  
358  99  24.908447  -26.712442  36.523766  
359  98  -19.848373  -82.62609  84.97664  
360  97  -29.713146  9.491907  31.192425  
361  98  6.9741592  -32.19738  32.944046  
362  100  26.64132  46.921314  53.957108  
363  95  14.836662  11.323505  18.664091  
364  99  14.128204  41.5503  43.8866  
365  95  34.449356  -29.489035  45.347122  
366  103  -23.624237  -38.547546  45.210815  
367  98  20.523453  -0.25917816  20.52509  
368  101  40.41929  -57.334366  70.14947  
369  101  44.695755  -8.822702  45.558212  
370  99  23.395164  -63.802307  67.95637  
371  104  57.146973  -22.060612  61.25722  
372  98  -5.3000565  5.770769  7.8353286  
373  102  36.18125  -27.36802  45.366196  
374  103  37.339172  20.752344  42.71854  
375  96  22.494774  -15.704081  27.434158  
376  97  37.67885  52.216675  64.39159  
377  103  10.83078  77.40672  78.160774  
378  103  -37.92914  60.964584  71.80042  
379  103  -46.904312  3.796156  47.057682  
380  101  -4.5784836  -22.10172  22.570967  
381  99  -55.016438  -34.288418  64.82672  
382  93  5.1420593  8.604869  10.024198  
383  97  8.991318  -27.09918  28.55187  
384  101  -5.2421417  91.62297  91.77281  
385  99  36.07395  -13.059866  38.36522  
386  98  -48.192017  20.181183  52.247013  
387  98  -10.727821  -43.479404  44.78331  
388  99  69.12384  24.315044  73.27569  
389  97  -15.654495  -29.059582  33.007915  
390  95  41.125885  119.34955  126.236496  
391  100  -25.27021  59.4746  64.62052  
392  98  -65.4922  -18.602951  68.08302  
393  100  7.496231  1.376174  7.621505  
394  101  -8.502869  85.673416  86.09432  
395  99  -2.5360565  0.12803626  2.5392864  
396  99  46.744995  37.445984  59.89404  
397  104  10.423668  -7.553747  12.872915  
398  103  34.372192  -56.542667  66.170395  
399  100  -32.888893  2.1639059  32.960003  
400  101  133.99992  0.04735577  133.99994  
401  96  -32.890045  -2.3953807  32.977158  
402  97  34.320473  56.400387  66.02196  
403  100  10.2274475  7.057863  12.426348  
404  99  46.73979  -37.569824  59.96749  
405  98  -2.4959946  -0.5328903  2.5522463  
406  104  -8.302956  -86.00037  86.400246  
407  96  7.3233566  -1.5458322  7.484728  
408  101  -65.48111  18.34168  68.00142  
409  103  -25.058403  -59.769783  64.81011  
410  103  41.581284  -119.29333  126.3325  
411  95  -15.997658  28.633907  32.79978  
412  101  69.27896  -24.222054  73.3913  
413  101  -10.810753  43.366035  44.693237  
414  100  -48.12541  -20.44453  52.287987  
415  100  35.996223  12.889697  38.23444  
416  102  -5.101486  -91.73218  91.873924  
417  95  8.953438  26.87416  28.326393  
418  96  5.071602  -8.715007  10.083278  
419  95  -55.100777  33.854836  64.67028  
420  102  -4.7083817  21.741358  22.245348  
421  101  -46.78987  -4.0618  46.965843  
422  97  -37.75847  -61.383232  72.06666  
423  94  11.087891  -77.578766  78.36713  
424  97  37.987488  -52.399734  64.720795  
425  96  22.61869  15.650816  27.505512  
426  103  37.584465  -20.778458  42.945736  
427  100  36.20993  27.263557  45.32616  
428  100  -5.208786  -5.9512043  7.9087477  
429  102  57.034103  22.069725  61.155228  
430  98  23.267952  63.619064  67.740555  
431  101  44.714264  8.676142  45.548225  
432  99  40.171234  57.203434  69.89965  
433  99  20.366127  0.23285866  20.367458  
434  101  -23.821442  37.99277  44.84319  
435  100  34.27455  29.157997  44.999264  
436  102  14.293503  -41.627716  44.0133  
437  102  14.753609  -11.418762  18.65629  
438  100  26.52855  -47.005295  53.97464  
439  99  6.830475  32.070255  32.78958  
440  102  -29.844452  -9.728626  31.390085  
441  95  -20.205582  82.38434  84.825966  
442  93  24.889328  26.422789  36.299343  
443  97  4.4540176  -1.9375267  4.8571887  
444  98  52.957214  -6.66502  53.374985  
445  102  -62.66883  37.40944  72.98526  
446  103  16.060616  -42.45128  45.38782  
447  95  23.201027  -6.127758  23.996607  
448  99  -28.933815  -31.863304  43.039932  
449  100  15.4099045  -25.278534  29.605227  
450  96  -61.82017  55.2244  82.89432  
451  95  -54.013474  -55.07034  77.13752  
452  92  -16.34517  -42.2426  45.294613  
453  99  -2.0378418  -30.42337  30.491545  
454  103  15.939949  -0.14501572  15.940608  
455  104  1.7040558  25.515553  25.572392  
456  99  -12.301811  15.612038  19.876375  
457  95  61.12989  -43.369343  74.951744  
458  100  -28.139824  -52.12579  59.23637  
459  101  38.97824  -17.04068  42.54043  
460  99  -25.370083  0.6574669  25.378601  
461  100  -42.09939  -12.340054  43.870667  
