n v(n)    Re(T)       Im(T)        Mod(T) 
   
0  99  79482.0  0.0  79482.0  
1  106  -6.4629135  23.103268  23.990211  
2  103  6.586319  23.54457  24.448442  
3  102  -37.704803  23.507202  44.43243  
4  95  -14.875565  7.8574357  16.82325  
5  94  18.159828  30.004845  35.072353  
6  95  -56.330894  12.579142  57.71832  
7  100  -28.44645  -20.980522  35.34661  
8  99  -16.559624  -24.023159  29.177616  
9  102  3.407425  36.1941  36.354137  
10  106  36.495003  -33.964043  49.854202  
11  97  -23.957237  16.658924  29.179941  
12  100  40.03096  -77.429855  87.1657  
13  100  15.948265  53.74743  56.063656  
14  102  -57.07254  80.809204  98.931305  
15  96  57.40925  -143.98114  155.00449  
16  95  -40.647766  -51.67344  65.74485  
17  100  6.0600433  95.759094  95.95065  
18  96  -1.4700623  34.342155  34.373608  
19  102  -3.2108688  -37.688995  37.82552  
20  101  38.977943  125.37507  131.29428  
21  98  45.712593  -80.50969  92.58213  
22  98  -48.728416  30.50243  57.487885  
23  95  -6.3375854  -139.2869  139.431  
24  99  3.9902878  112.49023  112.560974  
25  102  58.5206  -68.17154  89.84442  
26  94  -70.06577  -83.17045  108.74988  
27  100  -6.595085  -45.749718  46.222633  
28  100  69.15763  52.82902  87.02692  
29  102  -19.009758  72.988525  75.42345  
30  100  41.5698  -70.19356  81.579315  
31  101  -45.383087  69.67699  83.15351  
32  100  -10.005905  26.541174  28.364628  
33  103  -94.38061  28.059862  98.46347  
34  102  -87.69158  -51.14527  101.51676  
35  95  -3.491867  -147.74556  147.78682  
36  92  -46.420357  -52.503143  70.0816  
37  98  11.440033  -64.58954  65.59484  
38  97  111.555725  25.690264  114.475624  
39  100  115.85675  -33.789562  120.683556  
40  99  81.59491  -206.24721  221.8009  
41  99  75.013145  -10.480045  75.74169  
42  101  6.419403  56.22667  56.591934  
43  106  -37.035378  -52.957214  64.62264  
44  98  -180.09691  160.9692  241.54912  
45  98  -109.400055  -4.076153  109.47597  
46  101  228.17535  122.254684  258.86328  
47  101  -13.731728  -50.30458  52.145096  
48  99  -28.738968  116.31618  119.81395  
49  100  70.34223  69.46631  98.86151  
50  100  95.07558  -19.64658  97.08426  
51  99  84.90933  41.192726  94.37392  
52  96  -29.744804  -57.814682  65.017624  
53  95  91.66902  -34.180183  97.834015  
54  93  11.231964  115.62906  116.1733  
55  102  53.325893  116.98141  128.56244  
56  102  2.7386475  52.4183  52.489796  
57  101  -35.423683  17.777138  39.634125  
58  100  16.52945  38.45991  41.861526  
59  97  -114.64017  39.26511  121.17804  
60  94  212.0835  -139.50516  253.85252  
61  93  30.478508  -97.53247  102.18377  
62  99  -131.32706  -19.423569  132.75568  
63  103  112.69241  71.60671  133.51817  
64  105  -55.38256  -10.651157  56.397476  
65  102  165.11443  119.97446  204.0996  
66  99  -42.95639  -17.54528  46.401382  
67  104  -135.8165  127.3858  186.20758  
68  105  -178.91576  139.45369  226.84395  
69  96  -16.434036  101.70711  103.026276  
70  95  88.471596  -134.47668  160.96956  
71  97  -48.374207  103.12593  113.90795  
72  101  186.66266  -86.3655  205.67438  
73  100  67.63359  63.85979  93.01815  
74  100  37.729202  -48.65551  61.56989  
75  94  -54.09288  86.015915  101.61091  
76  98  -86.158775  -20.9417  88.6673  
77  96  136.27606  26.87455  138.90071  
78  101  57.00289  -58.529102  81.700584  
79  102  20.008682  -73.6703  76.33912  
80  103  112.325714  69.14353  131.90108  
81  104  -91.83242  25.613892  95.33763  
82  105  -123.498825  -21.20552  125.30616  
83  102  116.63756  -32.51153  121.08394  
84  99  4.2490463  -95.783165  95.877365  
85  96  158.27869  -67.58773  172.10533  
86  99  -64.69735  57.144245  86.320404  
87  96  61.031845  -56.901505  83.4426  
88  102  -10.018021  -30.728333  32.320137  
89  101  80.96252  -68.98742  106.368195  
90  96  -43.70652  31.662617  53.97019  
91  99  -97.195274  -51.4567  109.97597  
92  95  -21.097267  -109.95409  111.95979  
93  93  102.10269  3.0996552  102.14973  
94  95  32.16246  28.261082  42.814865  
95  102  -122.996956  17.767384  124.27361  
96  103  -38.079674  167.24579  171.52614  
97  98  36.25474  67.54855  76.66299  
98  98  53.717  -78.528076  95.14292  
99  97  54.394382  106.83779  119.88771  
100  102  15.979141  -142.00563  142.90182  
101  101  6.831024  -55.774445  56.191204  
102  100  -44.812057  -127.42888  135.07864  
103  101  -13.375877  -89.9979  90.986465  
104  102  -80.120445  -91.63233  121.72005  
105  100  -239.24393  31.516487  241.31088  
106  99  -47.208725  -51.701645  70.012314  
107  97  -31.07072  -13.632919  33.93002  
108  96  -7.93956  9.250824  12.190748  
109  98  185.91309  -53.079422  193.34193  
110  98  -78.84502  34.56923  86.09047  
111  100  -57.801556  -97.527435  113.3694  
112  101  -40.085148  5.6931686  40.48742  
113  104  65.67944  -10.202209  66.46709  
114  98  -94.04098  -27.037582  97.85058  
115  95  45.877228  -58.167747  74.082436  
116  96  90.26631  -71.49761  115.15171  
117  103  -30.552322  0.519516  30.55674  
118  99  23.9702  82.68158  86.08608  
119  97  39.104607  -120.12609  126.3307  
120  96  -46.143345  -9.1239395  47.036736  
121  105  -68.08837  73.186165  99.9612  
122  102  -36.288235  1.1742401  36.307228  
123  102  -133.21735  -18.395035  134.48137  
124  102  -40.415066  -77.05213  87.008095  
125  103  40.59877  -36.3024  54.462135  
126  101  9.562683  -68.33307  68.99893  
127  99  -3.624321  -46.45735  46.598515  
128  95  3.8938446  -121.26791  121.33041  
129  98  46.590347  -43.499542  63.74065  
130  96  18.979275  -99.12184  100.92251  
131  98  1.4315872  -10.988785  11.081644  
132  97  73.40586  -117.037315  138.15265  
133  99  -166.60463  -13.82943  167.17763  
134  98  29.76104  -21.854836  36.923615  
135  103  -55.25086  21.450195  59.26861  
136  101  14.49271  -123.026505  123.8772  
137  99  -55.653465  29.896492  63.17522  
138  96  75.31395  -73.89968  105.51471  
139  98  -126.485275  23.61145  128.67023  
140  99  -5.210949  56.78398  57.02258  
141  104  -91.65042  94.37156  131.55148  
142  98  110.7206  -26.08712  113.75231  
143  97  -13.998875  -78.23953  79.482025  
144  96  -24.700535  -198.18211  199.71545  
145  104  1.9119263  6.115738  6.407629  
146  97  42.5542  69.09627  81.148964  
147  103  -84.35517  -50.900475  98.52235  
148  103  -63.234776  3.0039673  63.306087  
149  97  -76.87799  48.289368  90.78595  
150  92  -66.4431  67.00974  94.366264  
151  98  -35.258198  -11.940964  37.225353  
152  98  -80.273  -17.571907  82.17376  
153  97  26.647102  -1.41819  26.684814  
154  100  -106.782684  -140.65466  176.59637  
155  99  18.01197  -41.196037  44.96159  
156  100  -32.071136  13.219254  34.688705  
157  101  -30.112593  -53.945442  61.780895  
158  102  -23.547396  34.517982  41.784817  
159  99  -9.706602  -69.73202  70.40435  
160  102  -81.394745  12.75592  82.388214  
161  103  -106.77853  56.254005  120.69038  
162  103  -5.7533913  -135.73517  135.85704  
163  101  -17.075525  106.306244  107.66889  
164  108  59.366806  -31.62577  67.2652  
165  102  41.687195  -13.528229  43.827335  
166  91  49.960766  -20.672455  54.068737  
167  96  18.310043  -81.92156  83.94284  
168  100  3.7262764  -93.76477  93.83878  
169  98  23.841507  -98.15461  101.00864  
170  99  41.99877  -50.290955  65.521576  
171  101  136.2218  -31.807152  139.88593  
172  102  -9.842447  -67.4661  68.18027  
173  103  -2.947771  -13.940514  14.248764  
174  103  -25.353075  -23.476166  34.552986  
175  102  28.562868  -9.546204  30.1159  
176  98  95.322174  -31.69114  100.4522  
177  98  39.781403  -93.65316  101.75202  
178  97  7.8505516  -33.814873  34.714214  
179  93  19.62608  -90.68528  92.78471  
180  95  -35.311264  38.661777  52.360466  
181  99  -106.0008  -59.914948  121.76194  
182  95  -63.307384  8.965775  63.93911  
183  98  54.488922  96.963745  111.225044  
184  98  17.218754  4.7975845  17.874626  
185  104  94.581566  -23.731102  97.51327  
186  98  -4.518202  44.500484  44.729267  
187  102  22.11772  52.674625  57.129765  
188  105  37.854195  -27.55001  46.81819  
189  100  -37.19462  109.38405  115.53488  
190  101  102.12358  32.251614  107.09525  
191  100  0.039417744  -44.468605  44.468624  
192  101  8.967468  -61.482475  62.133003  
193  99  -18.864796  -55.582336  58.69648  
194  91  -6.265521  -124.97562  125.132576  
195  100  -19.887434  75.31493  77.8964  
196  101  -20.053776  -89.54886  91.76684  
197  104  -58.131226  -24.52987  63.094803  
198  96  -21.189405  96.48435  98.783714  
199  99  85.059  47.8847  97.61136  
200  96  30.916786  38.914036  49.700603  
201  99  -96.78339  -116.14385  151.1834  
202  96  -64.89297  27.075432  70.314835  
203  98  -3.653213  -44.81092  44.959587  
204  96  45.357494  27.478561  53.031815  
205  98  68.203735  -104.481995  124.772736  
206  98  -50.782722  38.98081  64.01866  
207  100  -55.858425  -29.52375  63.180817  
208  101  -0.09252596  39.26306  39.263172  
209  104  -100.71071  -21.979324  103.081215  
210  102  2.7020898  62.312164  62.370724  
211  94  20.300282  -53.373528  57.10372  
212  99  -44.68353  -7.709137  45.343674  
213  101  -20.165314  -51.189476  55.0182  
214  101  15.412388  30.202232  33.90747  
215  93  -11.152549  35.245255  36.96765  
216  100  -66.8223  12.320496  67.948616  
217  97  15.557547  84.79246  86.20788  
218  97  -46.350418  -45.303192  64.81312  
219  100  -68.24027  -48.471626  83.70325  
220  102  7.1818542  15.320267  16.920095  
221  100  -28.55624  -52.37867  59.65722  
222  98  -1.9677963  19.599907  19.69844  
223  101  30.965971  -10.566673  32.719196  
224  105  -55.359337  65.96064  86.11308  
225  101  87.840775  -27.618866  92.080414  
226  99  98.2305  -41.04825  106.46216  
227  104  -65.656395  -24.431076  70.05455  
228  102  39.94054  -8.38784  40.811794  
229  102  115.1623  -0.32002258  115.16274  
230  105  -58.20481  -23.841835  62.898594  
231  103  -4.9637337  -11.755447  12.760454  
232  100  35.251045  67.43743  76.09496  
233  95  93.65514  96.80348  134.69298  
234  96  6.4349403  -86.80291  87.04111  
235  96  -60.249275  25.688416  65.49709  
236  95  -1.320652  -36.090714  36.11487  
237  98  29.499336  11.474136  31.652277  
238  93  39.364044  -74.928635  84.639404  
239  99  121.96662  -17.856003  123.266754  
240  99  33.08114  -7.298889  33.87677  
241  101  -82.657684  5.453827  82.83741  
242  101  -0.19468117  26.864174  26.86488  
243  101  87.16905  -42.666405  97.05084  
244  100  167.61719  -52.868286  175.75716  
245  97  -22.190933  36.63017  42.82764  
246  95  -16.305038  -2.886467  16.558561  
247  97  -35.606453  -1.6465988  35.644505  
248  103  61.5709  16.26577  63.68321  
249  99  6.2492905  -94.19213  94.39921  
250  100  -52.891655  -6.0631485  53.23804  
251  97  -21.272713  -13.863632  25.391508  
252  94  7.8034515  24.681774  25.885979  
253  95  -7.788769  8.253471  11.348335  
254  99  66.6788  -13.071396  67.94795  
255  98  -32.04873  -55.418716  64.018394  
256  104  10.381603  29.671417  31.435183  
257  104  35.809254  -36.13085  50.869846  
258  101  3.9536972  58.230354  58.364426  
259  95  85.661865  8.153526  86.04903  
260  94  56.381565  -7.8501053  56.925434  
261  100  32.337185  -4.4072113  32.63613  
262  102  37.79012  -45.148544  58.876858  
263  101  54.389988  -66.534096  85.936356  
264  101  63.066395  -13.045105  64.401436  
265  101  23.502033  -7.214119  24.584326  
266  103  20.168262  -5.0550613  20.792126  
267  99  -138.84015  79.20552  159.844  
268  100  -44.031403  -22.24302  49.330685  
269  103  -118.46331  -16.624718  119.624146  
270  98  -23.167473  6.238762  23.992788  
271  98  47.00068  -41.24505  62.531734  
272  99  -7.012974  -12.425201  14.267706  
273  98  -55.650887  11.994003  56.928703  
274  101  -0.62018585  -53.523567  53.52716  
275  94  -35.852745  -24.319397  43.322655  
276  97  21.80552  -13.091408  25.433552  
277  106  7.1075516  93.5058  93.775536  
278  104  5.887539  -59.859314  60.148155  
279  102  -21.49886  27.621223  35.0019  
280  102  11.656357  -47.73433  49.136917  
281  103  21.07352  47.836494  52.27259  
282  99  103.89635  -33.345787  109.11642  
283  98  -16.408974  74.356186  76.14523  
284  98  -23.761482  -6.6460876  24.673437  
285  93  -0.41871262  -49.312157  49.313934  
286  97  121.03238  32.61239  125.34913  
287  99  -23.36552  23.240116  32.95528  
288  98  47.31371  -26.328209  54.145744  
289  97  -19.046486  48.645317  52.241127  
290  106  22.512337  31.994068  39.120655  
291  100  -56.610897  14.767612  58.50535  
292  100  25.824505  -9.127487  27.390072  
293  98  -50.239323  -23.416084  55.428356  
294  96  19.246185  -43.185394  47.279953  
295  97  49.9455  4.2693787  50.127644  
296  98  7.469742  65.22944  65.65575  
297  99  -11.265533  -10.610168  15.475397  
298  101  42.390488  -48.78824  64.631615  
299  97  -35.633472  -3.3711472  35.792583  
300  94  -8.070267  15.997429  17.917782  
301  95  13.690872  -15.674728  20.811945  
302  102  -65.69684  37.517365  75.654655  
303  99  5.621315  -6.255966  8.410487  
304  100  -23.50901  -82.340164  85.63046  
305  97  -14.687778  -2.109623  14.838509  
306  98  26.794434  12.675053  29.641165  
307  98  68.8702  27.64252  74.2106  
308  102  -72.746086  -19.91766  75.423515  
309  102  -11.63036  14.742287  18.777655  
310  97  -6.64373  21.41829  22.425037  
311  97  -4.172638  -44.925568  45.118927  
312  101  29.46096  66.01855  72.29382  
313  99  -74.66975  56.943707  93.90504  
314  95  -70.921425  88.78833  113.63634  
315  100  -27.220924  52.370365  59.022316  
316  100  -8.786972  -22.896896  24.525064  
317  100  14.565224  8.437717  16.832731  
318  102  24.330482  31.470211  39.77872  
319  103  8.793671  -35.340996  36.418602  
320  101  42.72657  92.01817  101.45395  
321  98  -22.754688  -18.704712  29.455765  
322  102  -41.101013  33.78851  53.206734  
323  106  -6.4475403  -29.535843  30.231388  
324  101  68.33624  89.82946  112.86795  
325  100  11.145546  -23.29567  25.824629  
326  96  11.436867  -60.377552  61.451206  
327  101  43.94616  57.02205  71.99152  
328  103  30.141884  13.817223  33.157936  
329  98  -14.633392  -22.47285  26.817255  
330  101  35.849007  21.021694  41.557945  
331  102  -43.316418  2.416977  43.383797  
332  105  59.75818  12.677765  61.08818  
333  100  23.979485  -19.686398  31.02531  
334  96  27.246628  45.612705  53.130947  
335  97  -15.329384  -37.085957  40.12927  
336  92  71.917854  36.854183  80.81094  
337  99  -54.343296  -17.55296  57.107796  
338  95  -53.005672  -126.703865  137.34435  
339  98  -38.08886  -32.192917  49.871284  
340  98  -28.106369  -8.309082  29.308851  
341  100  -31.237389  13.827698  34.161083  
342  98  10.715012  -37.82209  39.310585  
343  99  -62.843353  -57.879425  85.43603  
344  99  59.646446  36.35025  69.85012  
345  102  26.130493  -12.616295  29.01678  
346  107  -62.11807  -15.422577  64.00398  
347  104  19.997238  -30.496273  36.46796  
348  99  -5.0141373  5.672798  7.5711436  
349  101  -7.982193  -4.5802116  9.20292  
350  98  -7.9720917  -28.84195  29.92344  
351  97  -16.368904  -18.251999  24.516861  
352  98  -12.929695  -17.369194  21.65331  
353  99  0.9568329  -15.555996  15.585395  
354  99  7.8198013  -25.830029  26.987768  
355  103  52.194122  -10.849495  53.30983  
356  100  -86.83154  0.13245583  86.83164  
357  102  -34.33969  -47.346527  58.48853  
358  99  7.2151413  59.54845  59.983967  
359  103  56.026978  -92.222855  107.90772  
360  101  -38.019524  35.10074  51.745007  
361  102  17.97773  24.338575  30.258307  
362  96  -41.75648  20.298168  46.42865  
363  96  -24.437225  -32.845863  40.93933  
364  99  -24.72506  -7.5716515  25.85843  
365  95  -57.13941  34.755787  66.87957  
366  97  -11.74453  -51.856133  53.16947  
367  103  -47.491978  37.081657  60.25394  
368  99  -57.835434  -17.867706  60.532574  
369  96  0.115989685  1.2074947  1.2130529  
370  100  -2.7036057  -24.018942  24.170624  
371  100  -20.827942  -93.55386  95.84429  
372  100  -13.725227  -45.497  47.522194  
373  91  -34.479427  70.247604  78.25316  
374  92  -42.813705  13.996851  45.043594  
375  96  47.32704  -55.688454  73.082504  
376  101  18.561966  44.68113  48.383366  
377  106  -71.77877  37.154297  80.82471  
378  103  15.566315  -52.754883  55.003525  
379  98  -4.4368286  -62.88651  63.04283  
380  102  45.586525  -2.7951984  45.672142  
381  101  72.8625  93.19206  118.29499  
382  96  -65.26138  -50.66082  82.61699  
383  103  -37.078167  2.1538877  37.140675  
384  102  -14.334671  29.567719  32.859287  
385  93  48.928368  51.60177  71.11067  
386  96  -16.81636  -21.592476  27.368322  
387  98  -34.234978  -6.5428534  34.85459  
388  103  -22.256348  -19.269327  29.438953  
389  100  84.421555  97.847694  129.233  
390  101  53.91697  -30.33596  61.865257  
391  99  36.21041  22.49869  42.6308  
392  102  -20.94175  -67.46208  70.63773  
393  98  -58.958374  -67.59515  89.69501  
394  103  -28.12484  -53.670223  60.5929  
395  106  -38.080643  -101.12442  108.056854  
396  98  16.116783  27.28496  31.689426  
397  100  86.28005  10.761597  86.9486  
398  94  17.782387  -22.877275  28.97556  
399  96  -22.672493  -31.74815  39.01265  
400  101  -55.99987  -0.090330094  55.999943  
401  99  -22.62204  31.619743  38.87885  
402  100  17.868858  22.79127  28.960974  
403  102  86.12303  -10.947444  86.81603  
404  97  16.05191  -27.266624  31.64068  
405  98  -38.244133  100.82843  107.837776  
406  101  -28.178955  53.35585  60.33987  
407  100  -59.178974  67.27358  89.59847  
408  92  -20.925148  67.27065  70.450005  
409  95  36.37654  -22.67548  42.865253  
410  93  54.070793  30.290205  61.97699  
411  99  84.26038  -98.17873  129.3788  
412  104  -22.267143  19.181166  29.389502  
413  100  -34.19938  6.378109  34.789047  
414  101  -16.820518  21.378008  27.202005  
415  102  48.94227  -51.736538  71.21808  
416  96  -14.353729  -29.666668  32.95665  
417  104  -37.06511  -2.4739199  37.14758  
418  101  -65.341995  50.36912  82.502266  
419  101  73.09812  -93.358604  118.57134  
420  95  45.444534  2.7084694  45.525173  
421  96  -4.5306854  62.84261  63.00572  
422  99  15.350105  52.47223  54.671387  
423  98  -71.72183  -37.558353  80.9608  
424  104  18.816528  -44.947193  48.72691  
425  104  47.270164  55.648582  73.0153  
426  105  -42.69271  -14.274267  45.0158  
427  101  -34.28106  -70.480316  78.37516  
428  98  -13.769165  45.361187  47.404926  
429  99  -21.11834  93.35566  95.71449  
430  103  -2.7615738  23.703909  23.864233  
431  101  0.107162476  -1.4841995  1.4880632  
432  100  -58.00798  17.537489  60.601067  
433  103  -47.509495  -37.21284  60.348553  
434  105  -11.924393  51.349754  52.716114  
435  104  -57.16626  -35.19787  67.13323  
436  97  -24.582672  7.5055447  25.702936  
437  93  -24.532455  32.672184  40.857227  
438  98  -41.807373  -20.580334  46.598354  
439  98  18.078102  -24.470488  30.424046  
440  98  -37.96927  -35.320644  51.857628  
441  98  55.68801  92.15289  107.67223  
442  101  7.34494  -59.80229  60.25166  
443  96  -34.462486  47.053047  58.323685  
444  97  -86.70301  -0.27400208  86.703445  
445  97  52.28788  10.9274025  53.41751  
446  100  7.902397  25.693375  26.88117  
447  96  0.7659836  15.42326  15.442269  
448  97  -12.77475  16.97377  21.243896  
449  99  -16.410576  18.079144  24.41644  
450  100  -7.8828278  28.58662  29.653564  
451  98  -7.991333  4.306587  9.07789  
452  98  -4.9168015  -5.827656  7.6247296  
453  102  20.069527  30.40924  36.434982  
454  101  -62.047676  15.044273  63.84547  
455  103  26.179733  12.493134  29.007875  
456  98  59.348167  -36.400463  69.621826  
457  99  -62.890324  57.555527  85.25158  
458  99  11.318573  37.09928  38.787457  
459  102  -31.183876  -14.189224  34.2603  
460  99  -28.10783  8.008507  29.226465  
461  97  -38.00349  31.88269  49.606163  
