n v(n)    Re(T)       Im(T)        Mod(T) 
   
0  114  77972.0  0.0  77972.0  
1  107  555.11383  -419.61163  695.863  
2  89  -143.49034  61.823284  156.24211  
3  119  696.0324  1057.1826  1265.7394  
4  82  -14.128204  789.50494  789.63135  
5  80  -29.957367  -214.19016  216.27498  
6  91  -162.98557  -319.06213  358.28055  
7  126  -56.89942  -577.58435  580.38025  
8  54  772.65466  266.51895  817.3296  
9  103  534.6531  769.4027  936.92816  
10  118  -103.664406  1165.9341  1170.5334  
11  123  897.81134  -995.2481  1340.3671  
12  112  474.52383  -674.06396  824.33923  
13  82  -11.277519  118.31446  118.85072  
14  102  328.76993  95.07941  342.24225  
15  107  -261.4125  511.9977  574.8723  
16  107  -722.823  989.7837  1225.6202  
17  77  398.0302  -485.02582  627.43774  
18  84  -90.38574  -186.74002  207.46426  
19  67  -147.65363  1533.8867  1540.9769  
20  56  505.18878  692.93555  857.5403  
21  37  -532.47644  211.45706  572.92694  
22  151  1063.3386  314.91464  1108.9906  
23  120  1206.9722  226.79742  1228.0957  
24  175  -211.92233  -456.2303  503.04785  
25  68  -226.58469  -336.43506  405.62195  
26  102  -1500.6407  252.36526  1521.7131  
27  83  1454.7319  -973.77637  1750.5671  
28  97  -15.009697  1044.2733  1044.3811  
29  122  -99.200325  -193.3873  217.34616  
30  32  -532.2549  467.39682  708.3467  
31  100  10.911804  -411.9722  412.11667  
32  85  1866.4188  860.5536  2055.2546  
33  81  -436.02197  305.75214  532.54065  
34  158  -961.03186  322.80124  1013.79626  
35  150  -238.25311  27.160837  239.79628  
36  103  -496.09497  2944.4358  2985.9358  
37  45  -250.83331  -593.2216  644.0724  
38  49  -177.71454  113.78936  211.02246  
39  65  -1084.5292  -331.83105  1134.1584  
40  228  46.492775  645.9559  647.6269  
41  85  252.27026  -805.00006  843.60266  
42  83  -619.2533  414.19543  745.005  
43  98  -300.7383  -982.6082  1027.6003  
44  91  184.75266  494.46024  527.8489  
45  107  -338.29987  217.8278  402.3627  
46  85  -1630.438  -338.6211  1665.2303  
47  86  -1316.6152  775.9745  1528.2709  
48  74  -382.42798  -690.3464  789.1953  
49  84  334.1673  -1013.6419  1067.304  
50  67  580.0532  537.8355  791.0302  
51  111  -902.8691  -10.916218  902.93506  
52  87  -741.3542  599.66986  953.525  
53  38  867.38245  475.3989  989.119  
54  45  428.8696  -918.9472  1014.09717  
55  119  -475.1976  652.81305  807.4513  
56  63  -634.0178  361.25037  729.7126  
57  68  0.9314728  -417.40634  417.40738  
58  112  329.8617  -27.564678  331.0114  
59  143  -906.16644  122.73396  914.4404  
60  107  638.9351  640.9385  905.0084  
61  84  -85.56381  -545.45026  552.12054  
62  47  208.591  -897.89856  921.8091  
63  115  579.1894  490.802  759.1752  
64  141  -14.704445  66.74082  68.341484  
65  115  206.52127  822.5507  848.0806  
66  58  504.90344  -25.40052  505.54196  
67  71  624.8425  1335.4528  1474.4023  
68  164  -439.8109  376.17194  578.73914  
69  55  156.23715  -1529.528  1537.4868  
70  114  -30.771004  -198.13399  200.50919  
71  104  -217.34004  -1085.0753  1106.6279  
72  105  19.564396  -377.0641  377.57132  
73  107  704.25684  606.6146  929.49396  
74  163  -1024.3119  -318.49622  1072.6858  
75  95  -465.4749  -56.827427  468.93097  
76  117  879.72797  -1591.3632  1818.3394  
77  84  252.03993  396.8842  470.15018  
78  96  -384.5116  -831.1909  915.8207  
79  133  -271.6534  -582.03674  642.3102  
80  110  -772.9662  -616.27435  988.5701  
81  116  -96.666954  -153.29425  181.2281  
82  122  -492.4002  -1174.5767  1273.6123  
83  66  -70.079025  -736.1557  739.48376  
84  154  956.81726  -739.1731  1209.0807  
85  95  -458.36868  244.8381  519.66095  
86  92  -175.62183  781.80457  801.28735  
87  40  799.1555  -492.73276  938.8478  
88  110  -1084.1964  302.29767  1125.5513  
89  92  -274.0473  411.9083  494.7427  
90  52  53.335472  -362.17685  366.08295  
91  39  192.91699  -744.1175  768.71826  
92  129  387.9633  1072.304  1140.3295  
93  110  -465.6985  315.98993  562.783  
94  87  338.54706  -282.46027  440.9058  
95  107  1470.8137  508.08002  1556.0972  
96  70  545.002  -329.11716  636.6673  
97  80  22.22091  915.9696  916.2391  
98  76  1405.0447  -527.12915  1500.6718  
99  105  808.6943  -1329.7487  1556.3477  
100  83  -171.75278  23.547554  173.35947  
101  98  31.808132  942.7119  943.24835  
102  101  212.78798  344.62143  405.0218  
103  93  254.28816  -124.83216  283.27643  
104  68  -4.7275925  -973.08813  973.0996  
105  136  -351.26468  -159.63028  385.83508  
106  121  -1173.8508  225.70421  1195.3527  
107  111  -503.76898  576.0499  765.256  
108  92  1565.8254  -236.61531  1583.6022  
109  103  -1418.7971  -106.6267  1422.7981  
110  109  957.7963  -175.51686  973.74536  
111  73  -837.00995  -630.80286  1048.0925  
112  81  1552.9668  548.21704  1646.8904  
113  33  -272.0099  -382.55423  469.40082  
114  96  344.48035  726.9904  804.4761  
115  115  -304.98584  -553.633  632.08057  
116  113  -185.20403  217.12622  285.38452  
117  65  -463.39355  -235.12282  519.631  
118  106  -312.70935  182.0562  361.84473  
119  88  -75.04964  520.47974  525.86273  
120  108  91.24965  101.13087  136.21288  
121  77  666.30066  -1364.1055  1518.1371  
122  22  -398.18854  -730.81696  832.2545  
123  110  -831.95544  455.66034  948.56537  
124  67  -185.98177  -185.31586  262.5475  
125  103  447.92456  -428.35437  619.7773  
126  54  -318.31036  -716.48987  784.0148  
127  116  223.1641  199.26819  299.18225  
128  117  -193.44434  833.43555  855.59076  
129  85  -645.1331  249.62912  691.74524  
130  50  -1362.9712  349.117  1406.973  
131  113  507.89194  -92.00157  516.1574  
132  139  -607.3495  21.487267  607.72943  
133  127  -932.32477  650.0228  1136.5559  
134  84  32.893063  -290.89093  292.74475  
135  125  1912.3007  343.7794  1942.956  
136  71  -354.4404  647.3079  737.99426  
137  66  638.35266  736.1173  974.35254  
138  73  1594.7421  453.72968  1658.0328  
139  163  820.5538  -183.81926  840.8912  
140  63  201.55734  993.94727  1014.1778  
141  135  810.78546  -879.1129  1195.9149  
142  112  -446.7434  -841.7233  952.9312  
143  52  821.286  524.04517  974.2351  
144  121  308.5609  -72.11426  316.87585  
145  112  128.92076  -467.69763  485.14084  
146  87  -203.31625  12.892899  203.72464  
147  172  -1361.4979  -72.4329  1363.4233  
148  178  -608.348  -672.1474  906.5701  
149  109  -930.94775  -945.1367  1326.63  
150  90  -190.9974  -77.503204  206.12315  
151  144  362.26212  -1361.3068  1408.6838  
152  85  606.2766  -91.51638  613.14484  
153  110  980.7471  352.2895  1042.1002  
154  137  -1123.2212  963.65125  1479.9491  
155  81  -434.3907  -15.013939  434.6501  
156  200  -454.2314  -687.50726  824.00995  
157  48  -649.0711  398.0043  761.3808  
158  36  541.8233  317.55298  628.0226  
159  75  -896.6318  419.3158  989.8355  
160  136  1353.8971  873.0862  1610.9988  
161  69  881.56067  -454.8247  991.97516  
162  91  -131.01407  -424.91486  444.65417  
163  65  755.49927  555.09106  937.49945  
164  112  -376.83533  -661.517  761.321  
165  113  677.8029  -913.5076  1137.5029  
166  131  19.695621  -615.93945  616.2543  
167  50  -592.2752  709.2798  924.0496  
168  128  -1307.2551  900.2056  1587.226  
169  69  -987.53296  -1354.0375  1675.8994  
170  125  -106.18678  138.60733  174.60706  
171  122  -1407.7914  -530.58466  1504.459  
172  95  446.04126  -205.42612  491.073  
173  112  -108.54199  675.5013  684.16614  
174  130  1355.6276  -768.6389  1558.3748  
175  68  -24.015638  845.71716  846.05804  
176  104  -454.9318  -1303.5979  1380.6992  
177  97  296.2841  -638.13196  703.56  
178  163  -1294.0637  -881.2849  1565.6512  
179  114  863.5099  340.73776  928.3057  
180  158  634.0459  -756.57214  987.12494  
181  76  1679.2672  -909.4129  1909.7042  
182  66  -1002.8777  523.05194  1131.0823  
183  89  -692.0304  -974.8771  1195.5298  
184  78  691.2244  -897.38934  1132.7395  
185  71  -233.40933  224.64682  323.95386  
186  166  -191.86452  -953.7628  972.86975  
187  68  459.54443  472.9974  659.4753  
188  54  1116.812  970.8698  1479.8167  
189  63  -806.61633  -252.59317  845.2415  
190  65  933.2027  -1577.1918  1832.5941  
191  60  626.9198  -691.1641  933.1325  
192  68  -1407.0654  -77.401146  1409.1926  
193  103  347.01907  534.19006  637.00964  
194  163  95.9236  738.99536  745.1949  
195  113  -540.70056  435.95898  694.5627  
196  157  -473.7364  187.92696  509.6496  
197  125  -70.22073  687.5426  691.1192  
198  82  -24.11347  445.42645  446.07867  
199  115  128.84743  976.3966  984.8614  
200  190  1456.6912  849.5739  1686.3348  
201  92  571.3222  790.0446  974.9767  
202  11  123.366684  -1564.7565  1569.612  
203  187  629.55334  597.2443  867.7777  
204  64  90.394936  -391.27686  401.58292  
205  85  -26.495834  1191.8564  1192.1509  
206  62  924.5169  -525.9792  1063.6661  
207  111  -215.97984  -496.55994  541.4971  
208  85  -649.633  393.87744  759.7121  
209  64  940.01025  -578.5601  1103.7894  
210  124  -827.8898  -103.52235  834.3371  
211  143  106.32241  156.98431  189.60098  
212  88  520.4775  110.99531  532.18115  
213  136  1432.3694  598.3268  1552.3135  
214  121  -306.47745  691.16113  756.0636  
215  128  -331.50555  1695.957  1728.0527  
216  63  66.18077  259.0401  267.36057  
217  0  1139.8671  -658.33026  1316.319  
218  201  -903.0294  616.5366  1093.4255  
219  76  294.68234  458.92282  545.3878  
220  55  1062.5449  253.69145  1092.4106  
221  152  -466.10797  -722.448  859.7603  
222  112  -565.0366  -195.59958  597.9344  
223  73  -138.78201  1094.9513  1103.7114  
224  93  270.6191  587.19116  646.55096  
225  96  -261.1225  -1011.13745  1044.3102  
226  99  500.68274  -281.8687  574.5722  
227  116  879.20154  249.63765  913.9553  
228  81  657.4243  -114.09198  667.25085  
229  77  -678.0487  -643.35016  934.6922  
230  102  -869.12335  860.99713  1223.3934  
231  98  70.5515  219.24216  230.31422  
232  101  486.18024  352.2292  600.3638  
233  130  -456.41187  -554.91266  718.49835  
234  84  -81.52168  666.0228  670.9934  
235  73  483.19226  467.10675  672.05914  
236  126  1265.0796  -613.6794  1406.0686  
237  129  450.61407  241.05563  511.039  
238  145  -24.673351  -531.50214  532.0745  
239  142  37.91819  150.98958  155.67801  
240  153  320.98895  466.4583  566.2307  
241  63  -690.44727  539.9365  876.49805  
242  77  -662.758  134.72285  676.3124  
243  116  -180.59259  1403.182  1414.7556  
244  159  355.7662  -1059.0372  1117.1971  
245  95  543.8286  287.4271  615.1129  
246  84  -1048.3405  -419.75235  1129.2518  
247  40  690.96454  -297.2243  752.1797  
248  68  451.36752  910.7766  1016.4874  
249  138  738.2088  916.0158  1176.4512  
250  99  -226.3243  -681.1218  717.73926  
251  77  29.536545  25.9912  39.343994  
252  148  195.33905  648.5263  677.3062  
253  77  -1299.6302  -421.18018  1366.1741  
254  68  921.3968  63.511513  923.5831  
255  122  -839.92285  -484.01666  969.40314  
256  75  100.52718  781.9706  788.40576  
257  88  95.46617  -11.147842  96.11485  
258  61  -431.33337  -651.78375  781.5821  
259  97  70.71913  93.79385  117.46694  
260  73  1728.1731  1326.9364  2178.8396  
261  103  828.91296  -1136.5552  1406.7175  
262  68  -1146.017  -871.33154  1439.6436  
263  45  815.11725  -153.10315  829.3713  
264  103  -400.17972  -503.4622  643.1314  
265  21  605.04834  -1044.6559  1207.2239  
266  104  172.52258  1054.0698  1068.0951  
267  108  -335.1478  -1070.7933  1122.0171  
268  163  522.2568  -1279.6721  1382.1406  
269  81  -1494.549  971.7882  1782.7083  
270  97  1106.9752  649.94916  1283.6775  
271  65  -488.97424  2270.8413  2322.8896  
272  78  447.075  -821.7949  935.5335  
273  94  -703.1609  -591.9354  919.14246  
274  110  -1037.3723  362.4921  1098.8821  
275  63  247.27892  1169.3726  1195.2318  
276  147  503.97995  -517.10004  722.0722  
277  139  -338.59665  -98.11071  352.52432  
278  57  -61.140526  -379.43677  384.33115  
279  168  308.78738  -818.70264  874.9992  
280  80  619.6037  982.5139  1161.569  
281  80  149.0816  -234.08917  277.5303  
282  65  -198.65698  -737.16907  763.46765  
283  141  2406.7058  -538.1989  2466.149  
284  132  -957.1339  725.7964  1201.2018  
285  163  139.59529  413.91016  436.81628  
286  148  -380.69928  -44.399643  383.27963  
287  73  -712.45355  -780.6002  1056.8475  
288  106  -519.44385  241.5865  572.8751  
289  106  -261.3889  -937.4663  973.22516  
290  67  -1020.91754  28.604824  1021.3182  
291  92  -315.29587  157.69064  352.5306  
292  75  -70.99841  1375.1008  1376.9325  
293  91  641.9673  -312.6586  714.057  
294  127  -671.31384  140.44218  685.8471  
295  113  -193.16585  388.10175  433.51587  
296  121  1.5185852  229.77377  229.7788  
297  65  -612.83887  -345.7603  703.6488  
298  95  201.91391  -921.3628  943.2278  
299  146  -157.9782  77.81378  176.10251  
300  82  313.30548  563.58514  644.8167  
301  61  799.9755  -317.61502  860.7207  
302  118  -661.22394  425.61707  786.36316  
303  139  179.86014  702.0654  724.7383  
304  113  -517.9646  312.9485  605.1645  
305  114  1379.652  -290.02194  1409.8058  
306  115  -1069.7609  -646.83936  1250.1157  
307  80  479.96066  -845.4702  972.2048  
308  75  -484.3839  34.561462  485.61536  
309  63  -876.1961  -1768.904  1974.0165  
310  28  -587.49927  750.5891  953.17334  
311  85  -605.6376  -845.1421  1039.7413  
312  53  273.0473  53.362488  278.21283  
313  53  283.31323  -568.8397  635.488  
314  167  -571.0226  449.35065  726.6242  
315  80  387.5674  -480.3019  617.1697  
316  61  463.20294  -281.68097  542.12646  
317  93  -101.25918  404.70227  417.17783  
318  129  -165.542  1652.5723  1660.8429  
319  173  83.45718  -375.61932  384.7791  
320  120  -802.08826  -615.39813  1010.97003  
321  48  -614.37854  218.53717  652.08856  
322  63  -209.20526  -140.1684  251.82141  
323  117  606.98193  -194.36682  637.3425  
324  61  -298.56125  -762.0719  818.46954  
325  137  251.37946  -2010.8018  2026.454  
326  64  594.82495  1608.9459  1715.3787  
327  101  1004.4314  -117.83918  1011.3202  
328  124  1225.2112  -305.80334  1262.7977  
329  113  -561.48236  633.3737  846.41876  
330  141  974.59247  -145.76215  985.43243  
331  101  468.43732  1413.8131  1489.3962  
332  37  -1110.844  374.1665  1172.1667  
333  119  1073.444  -254.46593  1103.193  
334  107  639.60266  -446.56937  780.0742  
335  132  990.9695  40.00815  991.77673  
336  90  -1124.7963  335.84866  1173.8658  
337  73  1250.5046  -371.03983  1304.3896  
338  49  350.96143  673.38086  759.3522  
339  50  1136.8578  106.004364  1141.7892  
340  105  -181.49396  -167.49881  246.9735  
341  109  -724.34015  448.43823  851.9187  
342  105  -377.72742  -286.55255  474.12064  
343  64  90.21604  -288.40958  302.19037  
344  110  764.2223  -477.7306  901.2559  
345  44  69.69984  -834.36426  837.27045  
346  79  314.24112  -199.03262  371.96973  
347  49  231.62372  -393.4027  456.52518  
348  85  -1286.98  1075.9166  1677.4725  
349  119  -852.86597  -191.60684  874.12445  
350  152  -262.75522  518.3997  581.18726  
351  83  80.50228  449.44446  456.59714  
352  86  -413.36127  671.00604  788.1095  
353  115  159.55164  -1068.1945  1080.0446  
354  108  240.03064  1316.5621  1338.264  
355  47  734.92505  130.47652  746.4174  
356  152  286.8767  928.8553  972.1473  
357  105  -613.7145  -672.5305  910.46295  
358  105  756.3317  368.25522  841.2191  
359  88  901.1828  96.73747  906.36005  
360  71  -480.4749  177.4182  512.1849  
361  99  484.20044  -30.633104  485.1685  
362  136  -304.5584  764.5349  822.9638  
363  92  215.68266  293.35922  364.1135  
364  82  395.2171  -47.083366  398.0118  
365  122  793.0354  -1389.6971  1600.051  
366  67  32.429306  518.26294  519.27655  
367  16  357.5379  36.942226  359.44135  
368  131  -1438.1178  -1480.4945  2063.988  
369  67  -349.0485  482.55283  595.5603  
370  122  -624.11163  900.414  1095.5641  
371  150  -301.16608  -1670.7708  1697.6973  
372  150  -558.21027  -204.60391  594.52625  
373  81  835.65466  -473.32178  960.39166  
374  109  108.602615  1227.1599  1231.9562  
375  83  -1079.3054  -451.74454  1170.0314  
376  69  -819.0032  -169.9155  836.4433  
377  124  9.894005  -287.4612  287.6314  
378  112  -394.99536  497.8179  635.48724  
379  114  1601.1344  -380.50415  1645.7262  
380  86  66.02587  136.17677  151.33913  
381  57  -964.7749  -373.4201  1034.5208  
382  72  -57.547512  -1238.433  1239.7693  
383  56  -557.1097  -897.1266  1056.0337  
384  122  25.26722  323.02646  324.01315  
385  103  -49.7257  627.0696  629.0381  
386  111  -326.05817  699.10455  771.40204  
387  63  -582.77295  -211.33774  619.9096  
388  85  -1644.6774  -362.56625  1684.1669  
389  74  177.75298  717.0857  738.7882  
390  76  218.82669  211.65825  304.441  
391  149  2045.655  -132.97379  2049.9724  
392  121  -601.7957  -858.50226  1048.4199  
393  162  230.82014  997.75195  1024.1029  
394  124  -1312.0872  726.4073  1499.7467  
395  90  -108.4144  589.65424  599.538  
396  62  138.23883  164.37636  214.77794  
397  175  -237.8187  203.44104  312.96323  
398  29  -724.661  -9.4548435  724.72266  
399  159  274.8784  63.45346  282.1072  
400  31  1317.9991  1.0273095  1317.9995  
401  123  273.8144  -63.590893  281.10162  
402  100  -725.3165  7.2656155  725.3529  
403  33  -237.5159  -204.97614  313.73398  
404  102  138.39182  -165.02304  215.37154  
405  56  -107.80948  -590.67267  600.4307  
406  79  -1310.3522  -729.3337  1499.6501  
407  55  233.66386  -996.3531  1023.3857  
408  46  -602.15393  858.155  1048.3413  
409  93  2045.8108  136.77544  2050.378  
410  101  217.82721  -211.53099  303.63474  
411  37  177.0838  -716.8279  738.3772  
412  72  -1646.3693  359.76654  1685.2192  
413  135  -582.58984  209.82907  619.2247  
414  122  -324.06207  -699.9919  771.3656  
415  176  -48.075363  -626.45764  628.2996  
416  89  25.912743  -321.34122  322.3843  
417  125  -558.80524  897.22363  1057.0116  
418  95  -59.954784  1238.2583  1239.709  
419  61  -964.8141  370.2932  1033.4327  
420  127  67.78847  -136.7795  152.65617  
421  152  1600.4822  383.16534  1645.7092  
422  70  -395.0967  -498.99567  636.47314  
423  60  8.576599  287.48315  287.61105  
424  110  -819.7088  167.82513  836.71246  
425  110  -1079.3483  448.72156  1168.907  
426  0  112.67625  -1226.9202  1232.0833  
427  142  834.7885  475.77267  960.84937  
428  75  -559.0915  203.90987  595.11554  
429  68  -304.67816  1669.2744  1696.8517  
430  80  -622.17285  -903.0606  1096.6392  
431  36  -347.79575  -482.66125  594.9149  
432  87  -1439.7874  1477.5552  2063.0457  
433  116  359.5323  -37.294  361.46136  
434  72  35.00386  -518.587  519.76697  
435  85  791.1727  1390.5768  1599.8931  
436  110  395.45538  46.300117  398.1566  
437  70  216.24591  -294.3159  365.21793  
438  134  -302.63834  -765.8833  823.5091  
439  47  484.6575  31.36009  485.67102  
440  88  -479.45105  -178.9175  511.7468  
441  138  901.9894  -95.46201  907.0269  
442  130  756.6222  -367.04892  840.953  
443  103  -615.25574  670.3463  909.8922  
444  160  289.38712  -929.0547  973.0814  
445  46  735.1905  -129.44131  746.4986  
446  102  242.21236  -1315.6548  1337.7646  
447  117  156.39915  1068.717  1080.1003  
448  78  -412.25217  -672.822  789.07623  
449  53  81.06343  -449.25906  456.51395  
450  94  -262.26416  -518.5784  581.1249  
451  195  -853.46716  189.8898  874.3365  
452  97  -1283.6144  -1077.9099  1676.1729  
453  81  232.72153  395.1419  458.5809  
454  127  314.84  200.44604  373.23297  
455  40  68.80421  834.8691  837.69946  
456  198  763.2628  478.82907  901.02576  
457  85  89.423996  287.87857  301.4477  
458  13  -377.78604  284.3152  472.8186  
459  75  -722.4982  -450.70807  851.55237  
460  124  -179.89139  166.61288  245.19536  
461  105  1138.4315  -104.43083  1143.2113  
462  31  353.04236  -672.76245  759.76855  
463  56  1249.4806  373.52255  1304.117  
