n v(n)    Re(T)       Im(T)        Mod(T) 
   
0  98  78818.0  0.0  78818.0  
1  210  -5.32679  80.452675  80.62882  
2  116  -934.5341  -269.30905  972.56433  
3  88  136.30597  494.12796  512.58344  
4  76  410.15213  -247.52779  479.05612  
5  120  -503.5354  147.8426  524.7908  
6  122  712.1788  638.9534  956.7968  
7  128  670.65686  -1185.8838  1362.388  
8  137  876.2227  -1027.0862  1350.0638  
9  78  418.25714  164.57445  449.47055  
10  128  1072.4662  76.268776  1075.1747  
11  122  942.8889  -516.919  1075.2882  
12  136  266.14246  370.09042  455.84946  
13  74  336.8379  -660.5298  741.4576  
14  64  785.99316  363.44644  865.95526  
15  132  -220.25673  -39.912785  223.84383  
16  101  155.09851  366.36688  397.84448  
17  64  -1289.0962  -278.381  1318.812  
18  129  347.72784  -106.50834  363.6739  
19  120  -795.6277  612.7082  1004.2085  
20  102  247.91885  -955.24945  986.8968  
21  95  -432.22263  429.16223  609.0949  
22  117  -1585.8704  336.0392  1621.082  
23  151  528.5486  -1008.1266  1138.2806  
24  55  -937.72375  478.9492  1052.9569  
25  75  -1114.057  -1635.1761  1978.6167  
26  71  593.31805  -173.20815  618.0836  
27  174  299.90814  506.6527  588.763  
28  151  933.817  66.65454  936.1929  
29  110  -343.71887  -747.9588  823.1556  
30  109  528.12634  -21.09052  528.5473  
31  33  188.43318  -428.06436  467.70306  
32  90  115.92064  -773.32477  781.9647  
33  70  -1121.0074  146.90321  1130.592  
34  60  841.4784  -448.91965  953.73724  
35  45  502.12097  -74.62296  507.63577  
36  95  758.09686  -668.63153  1010.8309  
37  77  -422.94595  103.84511  435.50784  
38  104  1039.9718  319.65704  1087.9899  
39  55  247.31252  -1232.5577  1257.1245  
40  166  -619.8821  -234.60219  662.791  
41  41  1233.2948  -1432.111  1889.9624  
42  89  82.28557  578.516  584.3386  
43  84  -2039.9829  -519.1197  2104.9978  
44  39  919.7517  -969.5253  1336.3842  
45  138  512.6656  -563.24506  761.6239  
46  105  399.98734  1268.2603  1329.8398  
47  96  -806.1755  -264.97662  848.6056  
48  40  55.882767  960.12646  961.75134  
49  89  -662.01404  -743.05664  995.1863  
50  133  379.15063  334.58984  505.67337  
51  105  -516.81305  -247.57347  573.05176  
52  91  572.0221  -374.6717  683.8042  
53  68  -211.71667  237.63799  318.26996  
54  69  721.5307  52.10853  723.4099  
55  77  -740.0759  -280.7789  791.5486  
56  113  1077.7756  -406.58054  1151.915  
57  87  274.7261  -399.50134  484.8461  
58  80  -356.74155  241.07104  430.55753  
59  103  -186.38693  611.68317  639.4501  
60  63  -326.73737  -763.49274  830.4689  
61  88  729.1994  -240.5015  767.8364  
62  136  1535.0507  163.18968  1543.7006  
63  152  -499.88843  -776.24817  923.28204  
64  101  552.77875  992.3205  1135.898  
65  134  250.27454  -172.59875  304.0192  
66  128  297.49146  -103.75279  315.06476  
67  21  1663.614  -137.47847  1669.2848  
68  55  -292.07416  -1096.2405  1134.4824  
69  21  -890.6666  2.6112862  890.6705  
70  117  -1468.6896  -963.2208  1756.3723  
71  136  646.44305  654.4425  919.8824  
72  60  363.00732  95.67519  375.40387  
73  125  -99.36193  -189.39723  213.87872  
74  124  588.1917  523.8722  787.6621  
75  111  -158.71088  -160.50046  225.72005  
76  49  1582.4954  1773.0621  2376.5608  
77  101  950.50024  26.234512  950.8622  
78  46  -89.30799  1675.3724  1677.7511  
79  135  1220.6705  -1223.2534  1728.1162  
80  73  461.17975  -1118.3556  1209.7131  
81  119  -290.72003  1398.7595  1428.652  
82  62  355.60248  594.9049  693.0837  
83  161  330.59323  996.14813  1049.5728  
84  145  -145.45116  1087.0645  1096.7521  
85  108  229.72458  239.03116  331.5257  
86  73  -352.72644  -470.926  588.3768  
87  123  388.659  -39.147835  390.6256  
88  85  244.84995  735.8128  775.4818  
89  118  1563.357  -1742.8682  2341.2976  
90  103  613.1099  -1596.9928  1710.6401  
91  46  -1160.0854  154.56693  1170.3372  
92  88  -37.474007  -31.722755  49.09821  
93  114  540.3343  29.656403  541.1475  
94  114  -52.076607  -214.5326  220.76279  
95  74  576.16785  666.55615  881.0599  
96  136  -551.87823  752.6412  933.2944  
97  53  -1345.1827  136.55728  1352.0963  
98  54  -323.95953  -472.44714  572.84906  
99  84  -29.688606  -9.634399  31.212738  
100  84  -480.18536  448.77893  657.25226  
101  135  469.61023  -696.9658  840.41364  
102  93  535.08813  945.85736  1086.7224  
103  98  -112.153984  -1179.8185  1185.1372  
104  161  100.02928  -631.4561  639.32983  
105  48  -661.0459  -304.6741  727.8791  
106  79  1152.5135  -104.843956  1157.2726  
107  83  -1696.3755  1354.8323  2171.0044  
108  118  141.61449  932.8821  943.56964  
109  128  1124.1672  912.04724  1447.6125  
110  133  -200.52014  -460.20612  501.99402  
111  130  -192.38884  -451.64145  490.91086  
112  89  770.1248  -1271.304  1486.3734  
113  86  -1477.0383  -459.9726  1547.0026  
114  68  1324.4702  7.9766846  1324.4943  
115  73  189.60509  -103.78245  216.15015  
116  175  709.88617  -941.9967  1179.5322  
117  86  -85.80945  -1173.8323  1176.9645  
118  132  28.505867  -898.37897  898.83105  
119  87  813.11554  561.48145  988.1388  
120  103  733.92084  -627.0878  965.3388  
121  124  482.4922  270.46826  553.1291  
122  70  -99.35184  -25.361465  102.53776  
123  124  146.75632  419.9156  444.8219  
124  89  1319.9282  -89.95677  1322.9901  
125  89  1114.5134  -289.49283  1151.4974  
126  133  395.75934  649.1891  760.3104  
127  95  293.0854  -352.32867  458.29526  
128  68  326.40988  -232.45447  400.72247  
129  54  -855.7745  427.31  956.5269  
130  96  316.09192  -237.0687  395.11475  
131  126  -1543.6384  304.45715  1573.3766  
132  97  -635.2478  1011.64856  1194.5596  
133  194  616.51337  -1469.3466  1593.4453  
134  93  350.00336  -419.57144  546.39044  
135  122  285.60004  1067.5057  1105.0502  
136  81  894.51227  994.36584  1337.5035  
137  64  -727.374  584.33936  933.01953  
138  95  390.01984  415.27667  569.71063  
139  112  1222.7015  843.1155  1485.208  
140  117  -6.5222015  -77.44881  77.722946  
141  58  -275.30463  866.571  909.2513  
142  84  -85.188515  -6.9225235  85.46932  
143  174  -653.66797  331.42584  732.88806  
144  98  531.71533  -1782.602  1860.2126  
145  224  1095.5123  143.06595  1104.8146  
146  74  933.4009  -953.03375  1333.9829  
147  94  -257.7115  -1016.21265  1048.3813  
148  78  -498.7834  -86.201096  506.17734  
149  68  -711.3761  -725.9457  1016.3922  
150  68  971.0375  350.96115  1032.5151  
151  39  131.01155  -261.3698  292.36655  
152  59  948.8294  -271.8087  986.994  
153  185  -1551.8748  -389.09753  1599.91  
154  87  244.79561  -317.91962  401.2453  
155  155  732.33386  -516.1294  895.93665  
156  109  1315.2198  780.7407  1529.4965  
157  44  -1588.2303  -744.93335  1754.2524  
158  77  -61.091774  775.749  778.1509  
159  122  577.0945  -81.01746  582.7537  
160  105  152.7645  321.4142  355.87088  
161  115  -586.0409  1023.6574  1179.5416  
162  77  -462.3274  -2125.434  2175.136  
163  100  648.699  -23.827728  649.1365  
164  141  -756.62286  -165.80531  774.577  
165  86  -397.0917  812.9806  904.7758  
166  88  -366.6405  142.5906  393.3921  
167  99  -1358.4011  355.8986  1404.2498  
168  116  -796.2933  -286.96198  846.422  
169  105  -347.80997  -330.37396  479.7069  
170  112  -5.27614  912.38153  912.3968  
171  69  1121.5659  100.38799  1126.0497  
172  102  -686.01105  314.95193  754.85486  
173  132  1045.3005  -924.71906  1395.6212  
174  102  -162.95935  -1167.0887  1178.4108  
175  44  -905.3229  -489.11884  1029.0028  
176  113  -158.05034  647.24133  666.25916  
177  101  490.5902  -1449.5679  1530.3352  
178  32  158.03714  -1541.6315  1549.7107  
179  106  -32.091885  341.10498  342.6113  
180  131  828.6442  -92.48892  833.7898  
181  158  79.866066  10.936195  80.61134  
182  138  274.34744  -466.58072  541.26154  
183  27  155.07375  354.43423  386.87402  
184  42  -1578.2363  -166.88312  1587.0349  
185  116  29.041672  -230.24612  232.07045  
186  94  -149.62338  -902.6904  915.00665  
187  69  -1331.0747  -160.00613  1340.6572  
188  83  -984.7362  381.9699  1056.2227  
189  105  -540.08124  967.51324  1108.0476  
190  110  -484.8266  684.1402  838.51337  
191  74  37.698437  -745.4889  746.44147  
192  83  -1170.8064  -563.98444  1299.5637  
193  65  1800.2672  15.768036  1800.3363  
194  92  371.54837  297.5065  475.9814  
195  89  -72.08145  1259.4286  1261.4896  
196  53  -718.5063  -539.4217  898.4581  
197  91  -1534.9845  79.93262  1537.0643  
198  119  -1499.9312  540.08154  1594.2025  
199  92  498.28146  -842.0087  978.39825  
200  91  292.27948  -343.86548  451.29898  
201  156  -118.94672  -174.54663  211.22227  
202  64  -98.472305  415.3376  426.85138  
203  109  277.0254  507.62903  578.2995  
204  91  179.31328  256.82336  313.22754  
205  117  -323.38354  -444.3006  549.52704  
206  123  -8.740995  1123.389  1123.423  
207  123  358.16827  -383.23193  524.54865  
208  143  458.9749  -1137.3018  1226.423  
209  88  406.67957  295.04846  502.4359  
210  85  -439.45026  -524.08826  683.9481  
211  111  -394.5007  -280.14398  483.85065  
212  100  -150.65248  -842.95795  856.3144  
213  187  81.68495  381.74908  390.39056  
214  75  349.4706  150.23758  380.3959  
215  70  441.68585  908.6112  1010.2775  
216  153  -253.92378  -714.353  758.14087  
217  100  -666.8854  183.97299  691.7963  
218  77  -768.4808  -1316.7083  1524.56  
219  56  330.51788  -575.0177  663.2401  
220  97  -120.190384  -1243.8414  1249.6349  
221  67  346.53983  414.81036  540.5159  
222  109  -452.11133  -587.33514  741.1931  
223  101  -116.60725  -1796.0675  1799.8488  
224  102  -383.4975  101.58309  396.7234  
225  101  214.81888  -589.35913  627.2889  
226  116  340.30136  -788.4035  858.7113  
227  121  -715.41815  83.76854  720.30566  
228  104  -460.64844  -808.75244  930.7403  
229  102  -228.63399  -948.33624  975.5076  
230  97  414.5123  -386.4385  566.70557  
231  112  -156.31808  -310.78485  347.883  
232  140  382.72202  -2144.282  2178.1692  
233  131  -559.64636  229.52145  604.8836  
234  127  763.62695  63.14414  766.2332  
235  157  -1444.3455  -677.73804  1595.4506  
236  190  -50.78237  112.56031  123.48552  
237  62  151.11859  -909.6713  922.1381  
238  77  133.93399  -98.228195  166.09363  
239  60  619.0741  1525.9741  1646.7695  
240  72  477.26624  -484.72397  680.25024  
241  154  1277.2805  436.46927  1349.7966  
242  125  899.2248  -132.0525  908.86914  
243  105  -691.1024  -41.595985  692.3531  
244  108  -14.1311455  48.553776  50.568356  
245  98  206.08809  770.0777  797.17755  
246  115  -505.28763  130.1895  521.7901  
247  56  391.3305  281.56158  482.09595  
248  123  -264.29  -418.60526  495.0551  
249  116  -226.89627  -587.55963  629.8478  
250  88  -1662.5428  -94.16077  1665.2072  
251  109  1088.6082  -969.9758  1458.0538  
252  165  -276.51324  -39.241417  279.28384  
253  152  -331.9578  413.0647  529.92303  
254  139  -379.1004  163.36432  412.80142  
255  64  -277.10696  675.2792  729.9248  
256  69  -373.52325  -772.20593  857.8005  
257  132  -1247.4604  427.8532  1318.7933  
258  117  1813.2583  341.3656  1845.1115  
259  135  624.0428  -324.95303  703.57935  
260  95  487.76486  -962.3036  1078.8618  
261  72  185.28275  3.0591812  185.308  
262  69  466.70978  -160.9023  493.66745  
263  118  1142.597  1044.7635  1548.2439  
264  107  -1525.5647  12.639778  1525.6171  
265  45  -624.1645  -174.67783  648.1463  
266  120  -222.71793  -1054.9264  1078.1804  
267  81  410.86475  2214.2793  2252.0752  
268  59  -665.5674  -1854.5591  1970.3729  
269  53  321.49268  -619.2138  697.69855  
270  102  1087.552  -509.4512  1200.962  
271  179  192.62157  -115.581406  224.63777  
272  112  426.67728  -166.63052  458.0603  
273  146  -381.98273  -640.6814  745.91113  
274  72  480.5851  -17.781746  480.91397  
275  85  -1036.6711  896.87744  1370.794  
276  43  -366.26187  -677.7987  770.42773  
277  145  795.8191  -319.9611  857.7314  
278  66  390.48343  -569.86115  690.8104  
279  60  58.395493  -1235.3883  1236.7677  
280  65  227.59012  1014.26166  1039.4825  
281  127  268.075  500.2058  567.51215  
282  126  256.94812  1226.3503  1252.9795  
283  59  606.20905  -538.40546  810.7835  
284  125  -265.90527  11.808273  266.16736  
285  121  579.00885  -355.61377  679.4942  
286  75  251.34369  -58.384743  258.0357  
287  138  -47.438065  -27.526756  54.846077  
288  74  -648.99835  -333.57788  729.7075  
289  71  281.01605  316.05878  422.92218  
290  131  -924.3451  764.1111  1199.283  
291  54  -564.1316  495.77307  751.0229  
292  77  735.7086  714.86945  1025.8195  
293  45  -27.505024  229.75034  231.39088  
294  202  -364.537  -921.3593  990.8533  
295  140  820.1888  610.8259  1022.6524  
296  65  -232.46155  223.93396  322.77667  
297  120  -322.31305  -163.9363  361.60864  
298  59  1086.9923  524.14874  1206.766  
299  59  863.2282  751.4044  1144.4525  
300  45  -384.94592  356.66226  524.7774  
301  103  -835.31476  849.21216  1191.1809  
302  126  -1243.615  963.83154  1573.388  
303  91  493.44763  -1031.2349  1143.213  
304  43  616.85126  562.8788  835.0677  
305  54  -142.50935  -1276.888  1284.8158  
306  51  -1062.0803  551.26184  1196.6221  
307  99  530.1339  457.5876  700.3059  
308  109  -1149.9015  -789.81525  1395.0203  
309  86  1027.378  -678.8967  1231.4246  
310  124  49.081795  -1007.4154  1008.61035  
311  145  -702.6436  1411.8394  1577.0221  
312  97  456.34238  762.85095  888.9263  
313  142  -817.0655  140.7211  829.095  
314  150  -227.52214  281.02234  361.57968  
315  114  1314.2421  -38.0375  1314.7925  
316  70  973.06494  599.70654  1143.0237  
317  76  -126.81459  934.34155  942.9083  
318  80  1082.1892  1160.027  1586.4413  
319  60  322.78745  -271.4615  421.76184  
320  40  327.70297  -641.15216  720.04535  
321  86  -308.39078  -349.4471  466.06668  
322  81  418.64996  619.07404  747.3422  
323  188  -171.83478  1528.1152  1537.7462  
324  86  -156.9555  344.64783  378.7046  
325  107  -653.98413  -19.695465  654.28064  
326  94  -251.94537  -2319.3035  2332.9478  
327  38  127.30358  -1670.3243  1675.1686  
328  170  -907.0858  62.8905  909.26337  
329  52  -628.7084  818.7767  1032.3127  
330  28  106.12614  -69.845474  127.04781  
331  80  686.8131  445.7966  818.8082  
332  143  373.50946  -1064.8118  1128.4208  
333  77  -901.5615  5.0646706  901.57574  
334  135  -855.12964  1262.8215  1525.1115  
335  124  -1102.7423  -755.8821  1336.9362  
336  99  -658.31586  785.59406  1024.9574  
337  84  -6.4580536  287.346  287.41855  
338  122  792.8862  -364.26514  872.5581  
339  49  160.0467  1493.693  1502.2429  
340  19  -474.21017  -287.54382  554.578  
341  75  -870.3246  679.63007  1104.2472  
342  100  290.05896  -341.07867  447.73752  
343  50  -220.1017  -274.9636  352.20694  
344  167  -1194.9277  -855.9741  1469.8789  
345  76  -173.38663  221.41379  281.2241  
346  78  -352.48212  -486.16495  600.4998  
347  124  -171.18275  -579.5194  604.2734  
348  99  -635.6462  1247.0249  1399.6847  
349  92  -508.86682  316.92227  599.4874  
350  65  -1155.1282  -586.445  1295.4686  
351  93  -764.6531  757.4198  1076.2802  
352  123  -24.334373  -501.152  501.74246  
353  75  -238.47989  644.8826  687.5654  
354  85  227.88962  -1309.0146  1328.7035  
355  38  695.17896  -11.564899  695.27515  
356  164  684.675  -76.93475  688.9839  
357  152  -1011.7305  588.4673  1170.4241  
358  108  -531.883  -917.47675  1060.5013  
359  83  -231.10661  -1163.2489  1185.9841  
360  126  -548.4884  -601.05676  813.7006  
361  12  -178.77357  -502.7976  533.63416  
362  168  -315.28174  -358.64932  477.52686  
363  66  -1093.0698  -329.92218  1141.775  
364  82  299.9406  -634.0911  701.45276  
365  87  -288.80814  -1305.7275  1337.2863  
366  65  789.7612  -124.75359  799.5538  
367  101  1325.595  -1050.8878  1691.6167  
368  134  -5.5591583  606.1875  606.213  
369  88  -1257.1644  1572.1481  2012.9858  
370  65  -1242.7207  -479.67667  1332.0828  
371  91  533.3142  1116.4094  1237.2526  
372  56  -1164.9496  250.87006  1191.6556  
373  132  673.7784  515.9719  848.64856  
374  90  -120.23325  1086.2142  1092.8483  
375  86  194.50677  626.798  656.2839  
376  98  966.56555  -622.44604  1149.6469  
377  93  -263.86844  900.3514  938.2213  
378  103  -32.725555  126.70675  130.86467  
379  134  -1104.2014  -483.46915  1205.4058  
380  144  -371.2121  -491.6808  616.075  
381  35  443.8092  -253.38446  511.04825  
382  108  499.90314  -209.54002  542.0426  
383  118  -177.3181  973.8708  989.88184  
384  90  68.307465  348.4899  355.12128  
385  109  -537.3638  220.9054  580.9983  
386  132  1206.5092  67.257744  1208.3824  
387  54  -55.101265  -1142.8044  1144.1321  
388  102  -533.5444  -16.297245  533.7932  
389  92  -2006.4739  435.17102  2053.1223  
390  84  -711.91583  186.62848  735.97174  
391  58  -120.35713  105.63007  160.13603  
392  66  293.85724  387.18634  486.07135  
393  90  -32.95716  1100.768  1101.2612  
394  190  -993.02527  -1123.2356  1499.2523  
395  100  -449.36877  511.32108  680.7214  
396  130  68.39813  -265.00403  273.68857  
397  95  -430.89935  -422.10547  603.1976  
398  186  1027.6897  -1086.2524  1495.3563  
399  97  -404.0455  -997.0133  1075.7734  
400  160  1533.998  2.7796648  1534.0006  
401  176  -406.63464  997.5648  1077.2592  
402  101  1024.6635  1088.2726  1494.7483  
403  48  -433.0955  420.1086  603.3763  
404  77  66.910446  264.1294  272.47266  
405  93  -449.34186  -512.60187  681.6662  
406  82  -995.3118  1120.1924  1498.4915  
407  129  -30.473373  -1102.1084  1102.5295  
408  67  294.40796  -386.51443  485.86978  
409  31  -121.19036  -105.78908  160.86775  
410  110  -712.5307  -188.01913  736.92004  
411  55  -2005.4646  -439.1564  2052.9849  
412  93  -531.5577  16.033741  531.79944  
413  87  -55.55478  1142.5696  1143.9194  
414  111  1207.0588  -65.96489  1208.86  
415  141  -537.1743  -222.77135  581.5353  
416  125  69.36147  -348.9148  355.74225  
417  103  -174.81808  -974.0558  989.61914  
418  78  499.69794  211.45802  542.59796  
419  80  442.58765  254.48773  510.5368  
420  90  -373.23532  490.6999  616.5152  
421  88  -1104.9933  480.47232  1204.9331  
422  97  -31.696579  -128.05855  131.92296  
423  83  -261.17218  -901.2622  938.3414  
424  70  965.9585  623.7408  1149.8384  
425  82  195.35184  -627.56537  657.2675  
426  50  -118.18186  -1086.6858  1093.0933  
427  116  673.9467  -514.23486  847.72736  
428  123  -1164.9984  -253.12033  1192.1792  
429  69  534.9543  -1114.5383  1236.2734  
430  156  -1244.4094  477.67334  1332.9391  
431  205  -1252.824  -1573.9995  2011.7262  
432  48  -2.6028595  -603.7795  603.7851  
433  31  1324.1344  1055.7742  1693.5144  
434  74  788.4503  127.51961  798.69586  
435  133  -292.63736  1306.0555  1338.4386  
436  90  297.67154  634.9131  701.2296  
437  96  -1094.5988  327.86548  1142.647  
438  72  -316.0971  358.30334  477.8061  
439  42  -180.06534  502.72195  533.9971  
440  89  -549.8632  600.25256  814.0348  
441  110  -233.53653  1162.3356  1185.5646  
442  77  -533.72943  914.85095  1059.1598  
443  73  -1009.3432  -591.78503  1170.0355  
444  79  685.7237  78.27876  690.1772  
445  108  695.09625  13.137398  695.2204  
446  124  224.51169  1308.5973  1327.7169  
447  120  -238.25116  -646.4004  688.9101  
448  95  -26.212753  500.0404  500.727  
449  113  -764.24786  -759.514  1077.4675  
450  189  -1156.4307  583.6123  1295.3514  
451  87  -507.8767  -319.1064  599.80634  
452  157  -632.6377  -1248.0798  1399.2618  
453  141  -171.85948  579.9926  604.9191  
454  96  -353.12473  485.11826  600.03064  
455  118  -173.09515  -221.87132  281.40506  
456  74  -1196.5829  853.261  1469.648  
457  107  -219.4058  273.4692  350.60565  
458  52  290.32156  339.74075  446.88968  
459  138  -868.5644  -682.62146  1104.7064  
460  111  -473.58005  285.40497  552.93225  
461  110  164.40642  -1493.873  1502.8926  
