n v(n)    Re(T)       Im(T)        Mod(T) 
   
0  50  369991.0  0.0  369991.0  
1  51  -1412.0643  469.19467  1487.9749  
2  51  -1255.7943  1255.4423  1775.7124  
3  49  -206.87862  4072.2568  4077.5085  
4  51  -4578.6406  -7531.7847  8814.291  
5  50  -2747.985  -2248.235  3550.4905  
6  51  -2575.527  -1315.2865  2891.9402  
7  50  -3457.2458  -100.09416  3458.6946  
8  50  -1941.3751  -1259.9547  2314.3948  
9  913  -2151.575  -955.1758  2354.0679  
10  913  -2455.202  -923.41534  2623.1113  
11  914  602.5665  1021.96625  1186.3816  
12  913  -1751.8188  -406.07047  1798.2665  
13  914  -1933.8972  -588.28796  2021.3959  
14  914  -1922.0945  -1394.916  2374.9185  
15  913  -2540.0808  1013.5798  2734.8408  
16  914  -2507.3093  346.23773  2531.1025  
17  913  -2664.981  242.76157  2676.0151  
18  913  -4473.739  412.74258  4492.738  
19  913  -2383.357  329.1265  2405.9749  
20  50  -2561.9155  414.64856  2595.2542  
21  49  -2517.0547  878.6024  2665.9907  
22  51  -3979.7607  -1920.4426  4418.8906  
23  52  -3490.0356  -325.36972  3505.1697  
24  52  -3494.163  -170.56284  3498.3235  
25  50  -3066.2627  -632.2365  3130.7651  
26  50  -4845.634  742.43036  4902.1797  
27  51  -4973.395  579.238  5007.0127  
28  50  -5464.044  639.84534  5501.38  
29  50  -1642.176  3168.7993  3569.0378  
30  52  -6675.6797  1097.521  6765.298  
31  914  -7982.0835  1449.3942  8112.6074  
32  913  -9952.796  2119.187  10175.907  
33  914  -12698.189  1458.0328  12781.622  
34  913  -18479.455  3113.4585  18739.902  
35  913  -33729.176  6281.589  34309.117  
36  912  -201502.11  39879.227  205410.45  
37  913  49752.766  -10438.928  50836.098  
38  913  21848.111  -4904.0977  22391.742  
39  913  13728.884  -3545.8037  14179.386  
40  911  11408.789  -340.60165  11413.872  
41  912  8005.7344  -1370.6117  8122.214  
42  51  6252.795  -917.72595  6319.7837  
43  50  3743.7966  1151.2853  3916.819  
44  50  6842.0615  -3539.8928  7703.5474  
45  51  5211.149  -2168.67  5644.396  
46  51  4474.724  -1827.7466  4833.613  
47  51  2230.734  -2292.3882  3198.6274  
48  49  3822.3843  -1571.1971  4132.709  
49  51  3557.2402  -1634.0411  3914.5942  
50  50  3276.8286  -2091.4167  3887.368  
51  49  3025.4893  871.9922  3148.6433  
52  51  3021.5247  -607.4579  3081.9824  
53  913  3062.4075  -786.7045  3161.8418  
54  912  4346.5186  -1336.014  4547.2144  
55  914  1602.4429  -518.54114  1684.253  
56  913  1926.5221  -574.3501  2010.3148  
57  914  1930.51  -594.6089  2020.0071  
58  912  989.6346  -1966.9026  2201.8362  
59  914  1676.3076  -679.73737  1808.8809  
60  914  1518.3085  -432.24454  1578.6373  
61  913  824.4985  572.8477  1003.96826  
62  911  3322.9194  -2959.7957  4449.9644  
63  914  2389.7634  -1753.6392  2964.1558  
64  50  2336.9834  -1577.0812  2819.3398  
65  51  3028.4463  -1342.6705  3312.7407  
66  51  1934.6158  -1838.0007  2668.5173  
67  52  2093.6152  -2230.609  3059.2222  
68  51  2231.8264  -3525.423  4172.488  
69  51  2889.013  7266.668  7819.9014  
70  50  3112.539  90.312614  3113.8489  
71  51  4228.4966  -1033.5864  4352.986  
72  49  11161.534  -4269.2515  11950.161  
73  50  -5117.0796  2340.3655  5626.8833  
74  51  -1074.4332  675.14935  1268.9497  
75  913  -135.35219  258.75168  292.0148  
76  912  7382.839  7543.364  10555.029  
77  914  333.53812  -423.50128  539.0742  
78  912  554.6302  -647.3154  852.42706  
79  913  983.3126  -1333.3746  1656.7412  
80  913  -344.69272  1339.0355  1382.6891  
81  913  225.30688  69.16606  235.6844  
82  913  158.09958  -274.36285  316.6551  
83  913  -1908.6676  -648.08276  2015.6942  
84  913  1810.4231  -122.77629  1814.5814  
85  914  1378.5321  -254.5181  1401.831  
86  51  1390.9572  -173.70598  1401.7616  
87  51  879.1325  -2677.5176  2818.151  
88  51  1288.2191  -897.85333  1570.2385  
89  52  1512.2579  -855.8273  1737.6318  
90  50  2153.3423  -1155.7377  2443.8928  
91  52  249.29744  -178.8218  306.80035  
92  50  1004.47534  -479.7913  1113.1803  
93  50  1259.5024  -487.78873  1350.6606  
94  49  3129.5735  1028.7004  3294.3064  
95  49  989.5416  -1075.6687  1461.5935  
96  50  1134.2191  -982.51135  1500.5938  
97  64  1188.89  -928.2222  1508.3289  
98  913  1837.0065  -2170.9624  2843.883  
99  913  1474.3973  -1616.1523  2187.6462  
100  914  1197.2684  -1741.0527  2112.9875  
101  914  -1313.7968  -2185.3782  2549.8901  
102  914  5041.2017  -1755.8813  5338.2427  
103  912  4232.4155  -2329.3064  4831.0464  
104  913  4647.9146  -2794.7493  5423.443  
105  913  5479.2217  -3736.5742  6632.0327  
106  913  7368.8667  -4891.2563  8844.466  
107  913  11672.986  -7902.901  14096.611  
108  51  30548.586  -20623.385  36858.38  
109  48  -44778.164  29999.518  53898.562  
110  50  -12757.497  8355.566  15250.22  
111  49  -7668.9614  4533.0835  8908.525  
112  51  -8003.3037  1156.6929  8086.4585  
113  51  -2808.1448  3055.989  4150.2705  
114  50  -2523.24  2119.6157  3295.3772  
115  50  -2079.7559  1196.4297  2399.339  
116  51  -3189.065  6133.0693  6912.646  
117  50  -1726.0564  2196.0615  2793.1982  
118  50  -1278.2218  1705.3873  2131.2432  
119  53  50.71528  1341.6428  1342.6011  
120  914  -2853.9062  1377.7595  3169.0696  
121  914  -1939.4888  1185.2153  2272.9612  
122  914  -1665.3326  965.60046  1925.0239  
123  914  -2198.8533  -875.3635  2366.689  
124  913  -1330.1769  1182.5566  1779.8345  
125  913  -1396.4875  1167.0569  1819.9448  
126  913  -1652.9293  1474.505  2215.026  
127  913  685.0844  -595.1035  907.4629  
128  913  -462.83606  396.83374  609.6673  
129  913  -481.55328  571.9516  747.67786  
130  50  46.560257  965.4896  966.61163  
131  51  -1180.7283  97.611755  1184.7562  
132  50  -921.80255  281.01004  963.68384  
133  50  -928.26587  180.17305  945.58966  
134  51  -1693.3508  3706.5378  4075.0288  
135  50  -948.0065  556.32306  1099.1868  
136  50  -1058.7599  426.0056  1141.2507  
137  52  -1202.2957  311.59137  1242.0161  
138  50  -812.7802  224.33466  843.17126  
139  51  -1218.4985  42.620327  1219.2437  
140  50  -1523.0957  -487.8346  1599.3132  
141  52  -4536.383  -6567.6597  7982.037  
142  913  -690.3206  2467.2488  2562.003  
143  913  -1435.9783  1880.3461  2365.9534  
144  914  -2932.36  2868.1687  4101.844  
145  913  8199.387  -8887.664  12092.167  
146  913  218.74673  -1536.088  1551.5852  
147  913  -1357.2068  -1300.04  1879.3921  
148  913  -6977.5806  -3391.0173  7757.94  
149  914  5805.8267  2472.263  6310.286  
150  914  2422.566  1008.7272  2624.1868  
151  913  1594.0378  644.41876  1719.3698  
152  49  1477.9183  -2517.2468  2919.0364  
153  50  1166.0057  630.77466  1325.687  
154  50  1158.0764  563.6079  1287.9421  
155  50  1718.5563  276.98938  1740.7351  
156  53  -1726.3136  1132.7753  2064.7854  
157  50  -39.24845  867.0881  867.9759  
158  51  241.94696  901.94196  933.8295  
159  50  1285.8993  2306.362  2640.614  
160  50  -416.06042  -225.15987  473.0785  
161  51  -199.72589  95.45665  221.36487  
162  50  -150.26486  254.21274  295.30264  
163  51  817.0427  -886.5518  1205.6256  
164  914  -102.844215  25.295391  105.90934  
165  914  -315.3975  0.99318695  315.39905  
166  914  -1346.7484  -303.16577  1380.4495  
167  914  2085.4238  929.05096  2283.0085  
168  914  925.86786  512.3019  1058.1515  
169  913  748.7792  487.12863  893.28864  
170  913  664.15924  957.55005  1165.3367  
171  914  777.9813  180.43707  798.63165  
172  914  938.6707  205.71796  960.9488  
173  913  1644.0343  -14.887398  1644.1017  
174  51  -3728.5354  1672.1028  4086.307  
175  50  -381.31195  761.6433  851.7625  
176  50  -7.21159  708.95636  708.99304  
177  51  607.73254  1201.8074  1346.7294  
178  52  -257.85858  -32.613716  259.91287  
179  50  22.85634  286.861  287.7701  
180  50  87.020515  339.3852  350.36392  
181  50  23288.516  -34559.57  41673.957  
182  51  581.3119  212.35733  618.8854  
183  51  1042.6545  331.782  1094.1699  
184  50  2826.3088  719.2959  2916.4033  
185  50  -4610.2603  -974.04663  4712.034  
186  913  -1349.0355  -407.88934  1409.3512  
187  913  -809.38495  -585.0846  998.7132  
188  915  -1061.1124  -3893.26  4035.2737  
189  913  -325.91016  1584.4722  1617.6432  
190  912  -361.2069  999.5092  1062.7743  
191  913  -556.3209  975.7474  1123.199  
192  914  2371.9512  -552.992  2435.56  
193  914  351.9919  494.92078  607.326  
194  913  290.03708  706.47925  763.6979  
195  912  804.0647  1302.8611  1531.002  
196  896  -811.90826  -336.00302  878.68823  
197  51  -364.56158  218.57492  425.06488  
198  51  -321.85208  433.61462  540.00964  
199  50  -1332.1224  2646.4458  2962.8071  
200  50  -23.179457  75.95624  79.41434  
201  51  -131.37238  143.37984  194.46458  
202  50  -227.1097  117.65309  255.77542  
203  51  719.8378  351.9803  801.28436  
204  51  176.90807  147.57965  230.38277  
205  51  87.56319  -187.28857  206.74701  
206  49  -285.30627  -2184.0908  2202.6465  
207  51  484.0357  2135.6587  2189.8237  
208  913  428.18582  1341.6888  1408.3579  
209  913  439.51135  1253.3344  1328.1631  
210  912  736.6951  1158.1859  1372.6304  
211  914  745.87744  1436.689  1618.7675  
212  913  1198.937  1930.8851  2272.8325  
213  913  3063.4365  3759.5566  4849.63  
214  914  -4226.814  -2644.729  4986.035  
215  913  -1372.5011  408.93768  1432.1276  
216  913  -1151.3209  1705.1105  2057.4114  
217  913  -4854.0728  11893.191  12845.622  
218  909  1451.5409  -2739.8704  3100.6226  
219  50  1240.9568  -1053.8431  1628.0537  
220  51  2528.4087  -522.2035  2581.772  
221  50  -11089.204  -535.5484  11102.129  
222  51  -1810.256  18.316147  1810.3486  
223  52  -903.2168  469.75702  1018.0728  
224  52  58.58564  2404.898  2405.6116  
225  50  -1340.1432  -2204.4187  2579.8152  
226  52  -814.4635  -932.2909  1237.9487  
227  51  -583.1046  -608.3187  842.65216  
228  50  1361.2031  -1919.2885  2352.9858  
229  50  -786.1516  -302.82324  842.4585  
230  913  -830.4238  -288.46503  879.0994  
231  912  -1388.2778  -600.93475  1512.7584  
232  914  1530.8564  1377.1556  2059.1453  
233  913  130.27586  504.04184  520.6054  
234  914  -96.72743  493.1191  502.51633  
235  915  -341.7733  1129.3507  1179.9331  
236  913  29.157959  -108.379425  112.23318  
237  912  -35.84887  139.1906  143.73296  
238  913  72.86447  163.68344  179.16891  
239  913  -3099.013  382.87503  3122.575  
240  913  -442.52856  358.3793  569.4447  
241  50  -328.97482  317.11963  456.93466  
242  51  -258.1123  341.53488  428.09814  
243  50  -188.86281  578.80585  608.83936  
244  50  -141.31013  498.73404  518.3668  
245  52  80.32231  402.01855  409.96414  
246  52  2872.8762  -1867.7157  3426.6282  
247  51  -1132.8949  1578.1555  1942.6852  
248  50  -878.1405  1523.2057  1758.2054  
249  52  -1160.1475  1693.7104  2052.9485  
250  51  956.11993  3478.3713  3607.3857  
251  50  -466.98254  3641.8179  3671.636  
252  913  -1099.0328  6114.847  6212.8276  
253  913  -4024.598  21334.082  21710.377  
254  914  2617.7002  -13774.93  14021.449  
255  913  930.56396  -5091.1675  5175.513  
256  914  639.2256  -3080.1155  3145.7463  
257  912  8724.887  -3587.666  9433.716  
258  913  313.33127  -1453.4592  1486.8491  
259  914  346.31808  -870.3641  936.73364  
260  913  940.58954  350.26694  1003.691  
261  913  -1771.6998  -4136.0737  4499.5586  
262  913  -644.3874  -1811.8943  1923.0695  
263  51  -661.34686  -1222.98  1390.3452  
264  50  -2145.1836  813.0246  2294.084  
265  52  432.2818  -2030.7015  2076.2024  
266  50  129.21732  -1605.6792  1610.8702  
267  52  -72.587135  -1419.5232  1421.3778  
268  50  1384.7711  -726.10724  1563.5929  
269  51  213.68295  -1316.373  1333.6035  
270  48  157.46274  -1505.7139  1513.9249  
271  50  169.48045  -2671.0518  2676.423  
272  50  -80.695946  941.8441  945.29474  
273  50  16.06949  -138.07274  139.00471  
274  915  -2.8692474  -351.47403  351.48575  
275  913  -341.5234  -333.7556  477.52597  
276  912  209.59209  -375.641  430.15695  
277  912  203.8245  -272.20346  340.0576  
278  916  513.53595  153.0627  535.8613  
279  913  -1687.8613  -3313.61  3718.7212  
280  914  -462.04572  -1323.0278  1401.3882  
281  913  -342.88748  -1068.1708  1121.8558  
282  912  -526.50916  -676.6924  857.39404  
283  912  75.58291  -1484.2799  1486.203  
284  914  -53.097168  -1469.8282  1470.787  
285  50  -87.078384  -1588.5054  1590.8903  
286  52  6659.39  595.61865  6685.973  
287  50  265.57993  -2141.7178  2158.1213  
288  50  236.62317  -3152.5303  3161.3982  
289  51  261.03458  -7472.409  7476.9673  
290  52  591.19635  9396.864  9415.443  
291  50  831.4124  2103.4597  2261.811  
292  49  1656.942  607.19434  1764.6931  
293  51  10323.346  -3325.6401  10845.799  
294  50  -3165.4065  1542.0471  3521.0378  
295  50  -1757.894  703.07684  1893.2798  
296  912  -1698.8807  102.270294  1701.9562  
297  914  2053.543  3974.6458  4473.796  
298  913  -391.1651  1108.7709  1175.7478  
299  913  -632.51306  931.3965  1125.8651  
300  913  -1160.6163  1648.9113  2016.4172  
301  913  240.35162  -815.2855  849.9761  
302  914  -200.58698  -167.4588  261.29977  
303  913  -398.8668  -179.65964  437.4612  
304  914  -3137.2  -626.1826  3199.0825  
305  913  -61.64409  -63.19313  88.28004  
306  913  -98.45663  -161.06537  188.77435  
307  50  -120.66196  -304.46124  327.49954  
308  50  -70.6791  509.00732  513.89105  
309  51  -18.731092  12.273727  22.394156  
310  52  217.43599  -177.84412  280.90378  
311  50  1876.0195  -1026.9841  2138.725  
312  51  -1500.4607  510.82367  1585.0309  
313  52  -901.1304  283.7112  944.737  
314  49  -844.1224  227.47293  874.2348  
315  51  -602.13257  394.7723  720.0061  
316  51  -834.31  324.09235  895.04694  
317  49  -1034.0464  609.08496  1200.0985  
318  83  -1755.7697  1839.3258  2542.803  
319  913  682.5495  -3017.5103  3093.7424  
320  914  -458.57974  -1292.691  1371.6215  
321  912  -867.9837  -1127.6622  1423.0311  
322  913  -3277.2876  -1445.7404  3582.0076  
323  914  -232.65073  -1261.3142  1282.5911  
324  914  -787.8719  -2039.2837  2186.1885  
325  914  -1535.5009  -4648.178  4895.235  
326  914  3165.9512  19070.97  19331.973  
327  913  -474.0697  3783.2732  3812.8596  
328  913  -1645.5135  2873.8152  3311.575  
329  51  -6927.4863  5642.387  8934.573  
330  50  5201.083  -2484.0725  5763.8423  
331  51  2080.29  -578.4879  2159.2256  
332  50  1318.0638  -193.28893  1332.161  
333  51  4042.2854  2147.141  4577.1484  
334  50  712.8447  -396.18124  815.541  
335  51  634.6492  -544.906  836.482  
336  50  800.8645  -1449.4547  1655.99  
337  51  -676.1606  2869.5393  2948.1265  
338  50  -92.41307  881.9535  886.7819  
339  50  -127.35724  527.6902  542.84143  
340  57  -810.52747  413.40192  909.86584  
341  914  474.19757  443.32538  649.1539  
342  913  267.77924  409.26212  489.082  
343  913  283.96753  531.89734  602.953  
344  913  -782.6646  -2519.7722  2638.5254  
345  913  -60.143097  -105.05845  121.05565  
346  912  14.206245  20.055593  24.577312  
347  913  18.64972  140.66919  141.90009  
348  912  -45.150845  128.81985  136.50331  
349  912  4.737362  204.9479  205.00266  
350  913  150.42471  325.66763  358.7297  
351  49  2435.9988  1861.6193  3065.8955  
352  51  -642.5257  -252.47318  690.3492  
353  50  -516.13715  -99.65178  525.6691  
354  51  -574.6346  -278.64108  638.62805  
355  50  -1033.2417  1273.1367  1639.654  
356  51  -1042.3566  466.75494  1142.089  
357  51  -1640.5613  403.5591  1689.4678  
358  50  -5178.55  592.6736  5212.3545  
359  50  2576.0972  224.12749  2585.8286  
360  51  684.05005  338.8222  763.3642  
361  52  151.67368  441.33966  466.67505  
362  53  -5424.3696  -11436.385  12657.594  
363  914  -730.7657  720.2346  1026.0392  
364  912  -1430.2144  1316.7325  1944.0416  
365  913  -4264.619  4069.4573  5894.6978  
366  913  7160.9214  -7081.031  10070.739  
367  913  1951.8281  -2315.481  3028.38  
368  912  768.3594  -1686.264  1853.0684  
369  913  -3264.903  -3211.189  4579.4463  
370  913  2371.0227  -222.98851  2381.4854  
371  912  1583.6194  -487.2495  1656.8833  
372  913  1292.0433  -651.4322  1446.9761  
373  51  878.81726  1301.7319  1570.6132  
374  50  1152.4578  -129.93878  1159.7599  
375  52  1325.077  -304.8525  1359.6926  
376  51  2656.807  -695.18097  2746.252  
377  49  -1325.3843  181.94084  1337.8138  
378  49  -216.87708  -98.85621  238.34474  
379  50  4.630497  -162.5425  162.60844  
380  50  -36.74376  -445.90536  447.4167  
381  51  52.93835  -46.54785  70.49235  
382  50  -35.2506  24.372803  42.856018  
383  50  -368.71524  438.2055  572.69104  
384  51  2013.786  -2308.5122  3063.4233  
385  913  651.2823  -894.3412  1106.352  
386  913  477.81192  -736.46216  877.8842  
387  912  -34.484867  -858.37915  859.07153  
388  914  705.0766  -555.649  897.7075  
389  914  616.60175  -662.88477  905.3253  
390  912  598.23737  -739.0649  950.84424  
391  913  254.83522  3308.3992  3318.1992  
392  913  697.8957  -572.1774  902.46625  
393  914  857.5697  -820.6302  1186.954  
394  913  1925.2484  -1333.0848  2341.7295  
395  50  -2395.8635  -426.8036  2433.5825  
396  49  -923.12604  -1223.4589  1532.649  
397  51  -1218.3427  -2276.7654  2582.251  
398  52  -7880.558  -12372.062  14668.712  
399  50  2438.7231  2050.9336  3186.4868  
400  51  1674.9952  5.6657567  1675.0048  
401  50  2437.4756  -2033.0422  3174.043  
402  50  -7906.9546  12362.277  14674.667  
403  51  -1219.9049  2270.047  2577.0686  
404  50  -923.5039  1219.4357  1529.6675  
405  50  -2391.3652  420.2886  2428.0178  
406  52  1925.6304  1336.133  2343.7798  
407  914  855.962  820.3555  1185.6028  
408  913  698.3438  571.8083  902.579  
409  913  263.1612  -3307.1177  3317.5715  
410  913  599.45953  743.2096  954.83624  
411  913  614.13135  664.32855  904.7042  
412  914  704.8673  558.76587  899.4761  
413  914  -35.021626  859.5226  860.2358  
414  913  478.52078  739.27026  880.6263  
415  914  650.3989  896.9541  1107.9465  
416  913  2008.3567  2311.6672  3062.238  
417  884  -369.1474  -441.03894  575.1392  
418  50  -35.545696  -25.095436  43.511806  
419  51  52.585358  45.83535  69.75743  
420  50  -38.212135  445.7258  447.36078  
421  51  5.437069  163.03851  163.12915  
422  50  -215.91483  98.86728  237.4741  
423  51  -1322.3777  -183.71022  1335.0776  
424  51  2659.919  701.3794  2750.8367  
425  49  1325.3502  307.44238  1360.5419  
426  51  1153.2623  132.12195  1160.8059  
427  50  881.5453  -1299.0643  1569.9332  
428  51  1292.2836  655.52234  1449.0364  
429  913  1580.6453  492.48914  1655.592  
430  913  2366.6147  230.76877  2377.8394  
431  913  -3273.366  3206.573  4582.2524  
432  913  766.52435  1688.2881  1854.1511  
433  913  1947.7183  2320.3018  3029.4233  
434  913  7139.163  7089.3125  10061.113  
435  914  -4264.8584  -4084.1104  5904.996  
436  913  -1430.3555  -1317.0885  1944.3866  
437  915  -733.5007  -715.54205  1024.7067  
438  913  -5447.812  11423.482  12656.011  
439  908  155.91763  -449.45615  475.7322  
440  50  684.1287  -342.15726  764.9207  
441  51  2572.283  -223.05623  2581.936  
442  51  -5180.563  -607.67755  5216.081  
443  50  -1637.7393  -410.02588  1688.2865  
444  51  -1039.313  -471.40927  1141.2267  
445  51  -1028.8173  -1276.1588  1639.2213  
446  50  -573.25244  276.40198  636.409  
447  52  -514.47644  97.652954  523.6622  
448  49  -638.8002  247.07129  684.91595  
449  51  2441.1418  -1857.9894  3067.784  
450  49  150.5245  -325.27432  358.41458  
451  913  6.862007  -205.08641  205.20117  
452  914  -44.884983  -129.87524  137.41266  
453  914  19.276997  -141.09167  142.40248  
454  912  15.148254  -21.201973  26.057499  
455  913  -61.363674  103.58897  120.400055  
456  913  -787.6483  2517.069  2637.4282  
457  913  286.42236  -535.91034  607.6493  
458  914  272.19446  -413.20975  494.80515  
459  914  476.04742  -444.9225  651.5959  
460  914  -810.35974  -417.62372  911.64276  
