n v(n)    Re(T)       Im(T)        Mod(T) 
   
0  91  378572.0  0.0  378572.0  
1  915  1958.4047  -45.069935  1958.9232  
2  913  2104.7795  -20.150393  2104.876  
3  914  2170.1338  154.70422  2175.641  
4  912  2143.7017  284.79797  2162.537  
5  49  2241.644  95.12652  2243.6616  
6  51  3693.3235  -632.60156  3747.1086  
7  51  -6258.407  942.57526  6328.9893  
8  51  190.57321  -390.93588  434.91263  
9  50  1503.0867  -291.55896  1531.1029  
10  914  2104.0657  292.5553  2124.3071  
11  914  2099.3074  789.16486  2242.7378  
12  912  2056.565  623.22516  2148.9229  
13  913  4941.163  -1377.258  5129.5156  
14  913  -4481.875  1573.7258  4750.1387  
15  50  -988.5685  -207.39229  1010.0887  
16  50  671.8497  -548.52905  867.33276  
17  50  1781.5337  98.60835  1784.2606  
18  50  2055.5178  1086.2216  2324.8723  
19  51  1703.3215  1549.1654  2302.4375  
20  913  5408.959  -2016.3839  5772.5767  
21  913  -2293.058  1758.9639  2889.9946  
22  913  -1310.7045  201.04832  1326.0342  
23  914  -20.4318  -572.5687  572.93317  
24  913  1273.262  -278.51285  1303.367  
25  50  1948.4178  966.521  2174.9702  
26  51  1405.443  2503.4966  2871.0215  
27  50  4938.9697  -2035.2012  5341.86  
28  50  -201.29688  1597.2925  1609.9266  
29  49  -782.003  739.93787  1076.5857  
30  913  -360.4154  -289.5443  462.315  
31  913  776.001  -455.46136  899.7903  
32  911  1713.4479  483.97736  1780.488  
33  915  1333.4835  3087.7534  3363.391  
34  913  4012.114  -1481.8551  4277.0264  
35  51  1333.206  1252.6293  1829.3492  
36  50  157.43533  1089.0665  1100.3871  
37  51  -36.554043  231.40573  234.27509  
38  50  583.0684  -291.76736  651.9946  
39  51  1430.0415  32.969  1430.4215  
40  915  1564.3195  3039.7346  3418.6375  
41  915  2922.1218  -515.212  2967.1938  
42  914  2015.7831  996.64606  2248.7075  
43  914  1207.2183  1215.4214  1713.0747  
44  914  766.3112  777.69366  1091.8059  
45  52  889.9534  309.61447  942.2729  
46  50  1336.2319  90.219955  1339.2742  
47  49  1784.9829  2260.699  2880.4382  
48  50  2163.4336  555.8841  2233.708  
49  50  2063.1418  1071.7332  2324.9014  
50  914  1805.1676  1249.9325  2195.6687  
51  913  1687.2211  1155.8497  2045.1659  
52  914  1770.7814  1109.5651  2089.6892  
53  914  1926.7697  1180.6924  2259.7512  
54  913  2003.7473  1158.0376  2314.3152  
55  51  2022.4833  1404.7261  2462.4568  
56  52  1967.7368  1455.2303  2447.383  
57  50  2050.7832  1374.0725  2468.5598  
58  49  2487.5042  1335.3976  2823.2896  
59  51  3086.3503  1803.3765  3574.5945  
60  912  3952.4055  3646.3533  5377.49  
61  914  2441.7183  336.43558  2464.7874  
62  914  2510.143  1963.0295  3186.5818  
63  913  2188.874  2147.2317  3066.2312  
64  912  2235.4004  1821.9883  2883.8613  
65  50  2929.3584  1525.5986  3302.8157  
66  51  4323.0806  2086.3716  4800.2056  
67  48  8909.568  8270.6  12156.612  
68  50  3889.6436  794.59644  3969.976  
69  51  4167.032  2848.1936  5047.4116  
70  914  3774.6213  3511.8486  5155.6616  
71  913  3423.0806  3230.0461  4706.4507  
72  914  3858.346  2450.0623  4570.5186  
73  913  4995.2197  1793.3275  5307.3765  
74  913  24051.287  19944.205  31244.771  
75  51  11156.13  6209.7715  12767.948  
76  51  12529.755  8318.646  15039.769  
77  50  14302.592  10970.67  18025.531  
78  50  18041.023  14262.375  22997.693  
79  51  28301.48  20841.477  35147.418  
80  913  72268.88  50076.348  87922.875  
81  913  -149487.98  -106137.74  183335.42  
82  913  -35112.367  -26839.59  44195.496  
83  914  -18411.258  -14497.519  23434.002  
84  913  -12166.653  -8713.3  14964.928  
85  51  -9283.41  -5583.478  10833.141  
86  52  -6743.378  -3910.0754  7794.988  
87  49  3324.861  -92.8374  3326.157  
88  50  -16157.954  -9678.755  18835.016  
89  51  -8952.114  -7052.447  11396.375  
90  914  -6080.945  -5481.8164  8187.075  
91  915  -4793.74  -3851.2793  6149.1704  
92  913  -4521.8154  -2558.622  5195.5137  
93  913  -4542.8438  -1990.4241  4959.76  
94  911  1337.595  -979.5809  1657.9321  
95  49  -6306.0913  -3355.9426  7143.4683  
96  49  -4973.6743  -3602.5283  6141.3066  
97  50  -3811.2483  -3378.6152  5093.1973  
98  50  -3131.154  -2721.181  4148.367  
99  50  -3049.7695  -1973.0637  3632.3647  
100  913  -3452.786  -1521.6982  3773.2341  
101  914  -836.4904  -1498.1177  1715.8301  
102  913  -3020.6157  -1745.9672  3488.9138  
103  913  -2937.536  -1983.4998  3544.487  
104  51  -2581.5525  -2025.0754  3281.0583  
105  50  -2365.2766  -1805.3662  2975.547  
106  52  -2307.7388  -1642.8221  2832.7588  
107  52  -2164.161  -1595.1544  2688.5144  
108  51  -2470.466  -1575.2609  2929.9573  
109  57  -2088.5237  -1539.2566  2594.4636  
110  913  -1818.437  -1423.0854  2309.0876  
111  913  -1666.1564  -1058.2177  1973.8038  
112  913  -1801.6934  -798.514  1970.7166  
113  912  -2022.5609  -891.8984  2210.4832  
114  51  -760.7871  -2037.922  2175.2983  
115  50  -3295.0085  -1341.1339  3557.488  
116  51  -2223.194  -1725.3871  2814.17  
117  51  -1383.7659  -1508.5538  2047.0815  
118  49  -968.0376  -796.8188  1253.801  
119  913  -1249.72  87.141495  1252.7544  
120  914  -1997.4534  366.59476  2030.8156  
121  913  333.1516  -2544.939  2566.6523  
122  913  -3194.217  -1040.0834  3359.2852  
123  912  -2628.0862  -1758.8359  3162.3315  
124  51  -1514.1176  -1864.3169  2401.7139  
125  51  -693.90186  -1040.627  1250.7615  
126  51  -694.8072  373.50354  788.8358  
127  50  -2039.9115  2158.4988  2969.9084  
128  52  899.97644  -2852.5505  2991.154  
129  913  -2477.0818  -808.81995  2605.7866  
130  914  -2755.7427  -1576.9723  3175.0525  
131  912  -1961.8055  -2177.3228  2930.7705  
132  913  -820.94727  -1753.9319  1936.5514  
133  914  -307.98322  -202.68561  368.69382  
134  50  -1788.441  4071.5542  4447.03  
135  49  854.1474  -2548.0906  2687.44  
136  49  -1543.2634  -700.5175  1694.8118  
137  49  -2456.0164  -1239.835  2751.2192  
138  51  -2261.3264  -2168.7356  3133.211  
139  914  -1295.8196  -2442.3274  2764.7986  
140  913  -283.657  -1550.1052  1575.845  
141  914  -1219.7688  5540.1187  5672.808  
142  913  437.67746  -1697.7937  1753.3011  
143  913  -819.38226  -592.1166  1010.9349  
144  49  -1867.1398  -876.6302  2062.6904  
145  48  -2194.172  -1821.0135  2851.4  
146  51  -1712.1959  -2723.8118  3217.2607  
147  50  -881.6299  -3505.0103  3614.1897  
148  51  -500.6513  6008.762  6029.5835  
149  913  -50.22551  -436.85614  439.7339  
150  912  -546.97644  -291.8289  619.9575  
151  913  -1289.4901  -517.42474  1389.4291  
152  913  -1723.423  -1320.999  2171.4568  
153  913  -1835.1785  -2462.8103  3071.37  
154  51  -1940.1061  -5370.0215  5709.741  
155  49  214.26648  5350.367  5354.656  
156  49  -359.5141  755.19855  836.4061  
157  52  -558.6247  204.08575  594.73737  
158  51  -893.8277  -188.50621  913.4892  
159  914  -1097.4198  -755.81964  1332.514  
160  914  -1322.8546  -1625.808  2095.995  
161  914  -3079.3904  -6628.4805  7308.8574  
162  913  624.01154  3676.5469  3729.127  
163  913  -361.26907  1507.2023  1549.8948  
164  52  -784.1075  846.4931  1153.8523  
165  49  -927.42365  213.37607  951.6533  
166  51  -668.7922  -313.58835  738.6614  
167  50  -309.59183  -549.6806  630.86914  
168  51  -4082.358  -6793.519  7925.752  
169  914  545.22815  1549.339  1642.4752  
170  915  -208.1591  1560.2921  1574.1162  
171  914  -876.69336  1330.9893  1593.7765  
172  912  -1158.7815  679.55756  1343.344  
173  913  -626.7915  33.9809  627.7119  
174  49  938.1321  387.37354  1014.9631  
175  51  -4451.839  -5967.2505  7444.9277  
176  50  36.58806  -411.1866  412.81125  
177  51  26.527328  1009.5177  1009.86615  
178  50  -743.87427  1523.1387  1695.0813  
179  914  -1418.9406  1146.6427  1824.3304  
180  914  -1134.4697  346.6242  1186.242  
181  913  1991.0538  980.5138  2219.3923  
182  912  -4188.8706  -4387.9165  6066.3374  
183  913  -591.8001  -1632.7385  1736.6815  
184  49  54.072224  65.315125  84.793106  
185  52  -479.84125  1204.9088  1296.9398  
186  49  -1478.1583  1372.2053  2016.9034  
187  49  -1841.0891  754.91327  1989.85  
188  52  2414.5068  1080.6195  2645.2944  
189  913  -3353.8828  -2570.2874  4225.507  
190  912  -1198.7872  -1914.6464  2258.9736  
191  913  -129.57068  -748.00024  759.1396  
192  914  -265.3597  537.4515  599.39124  
193  913  -1232.4901  1273.897  1772.5251  
194  50  -2408.0225  1091.5845  2643.885  
195  50  2045.5741  882.8175  2227.9453  
196  50  -2223.5476  -1058.0242  2462.4336  
197  49  -1349.022  -1487.6755  2008.2427  
198  50  -434.36627  -1037.9906  1125.2104  
199  913  -227.50299  -26.699436  229.06433  
200  913  -863.7773  791.126  1171.3204  
201  913  -2477.888  1206.791  2756.1338  
202  913  1070.9376  584.635  1220.1252  
203  912  -1358.2443  -84.54634  1360.8732  
204  51  -1236.0698  -648.3333  1395.781  
205  51  -740.7158  -725.8056  1037.0409  
206  51  -461.11215  -286.84412  543.0506  
207  51  -591.6686  312.00546  668.894  
208  51  -1800.9849  910.48553  2018.0511  
209  913  -177.95905  316.39328  363.00705  
210  913  -877.9351  262.0809  916.21857  
211  913  -953.7436  75.261444  956.7085  
212  914  -791.1456  71.86401  794.40283  
213  898  -824.88806  234.40536  857.54663  
214  50  -891.2836  261.35916  928.81384  
215  50  -493.6665  -64.40833  497.85043  
216  51  -1147.7072  150.24796  1157.5  
217  50  -910.5732  186.00398  929.37665  
218  52  -691.63116  407.233  802.61597  
219  913  -709.3293  904.05  1149.1102  
220  914  -1172.8873  1407.5055  1832.1399  
221  913  -2007.8177  1754.5262  2666.401  
222  913  1060.7339  -1755.757  2051.3018  
223  50  -1516.318  -47.32912  1517.0564  
224  51  -1245.8003  -127.9335  1252.3519  
225  50  -700.3726  268.17615  749.96014  
226  49  -509.3041  1373.4445  1464.8346  
227  51  -1277.4626  3064.2861  3319.9038  
228  63  -4388.0146  6597.5923  7923.566  
229  912  2484.689  -3994.1436  4703.92  
230  913  -1132.668  -719.4937  1341.8673  
231  913  -1442.3297  -673.7035  1591.9144  
232  913  -860.3365  -237.2666  892.4541  
233  49  -370.1694  1333.8306  1384.2433  
234  49  -1239.3276  4932.353  5085.67  
235  50  -10749.335  24385.934  26649.99  
236  50  4091.4468  -8573.749  9499.953  
237  50  314.64066  -3639.6177  3653.1926  
238  914  -602.141  -3334.1357  3388.0725  
239  914  -153.89517  -3757.002  3760.1526  
240  913  996.7741  -3611.7896  3746.8098  
241  913  1967.2026  -3051.5425  3630.6746  
242  913  20033.432  -70567.17  73355.734  
243  49  237.53146  2281.6428  2293.9736  
244  49  -907.4327  1811.8862  2026.417  
245  49  -1726.5972  971.0431  1980.9247  
246  52  -1619.6935  34.55252  1620.062  
247  52  -721.97095  25.901615  722.4354  
248  913  273.15326  2886.156  2899.0532  
249  912  1953.1549  -14002.089  14137.656  
250  914  1038.582  -2229.0876  2459.1633  
251  914  49.346146  -365.30017  368.61804  
252  913  -935.03015  -55.855  936.6969  
253  49  -1325.4851  -376.03293  1377.7922  
254  49  -947.4874  -529.25757  1085.2861  
255  50  278.08087  1946.133  1965.9  
256  50  -108.648094  -5256.468  5257.5903  
257  50  392.2266  -2104.4302  2140.67  
258  914  142.62994  -901.6808  912.89185  
259  912  -464.0803  -522.03064  698.4887  
260  914  -816.4209  -613.55536  1021.2704  
261  913  -863.6442  -814.51483  1187.146  
262  912  -42.38111  364.43796  366.89398  
263  50  -445.59305  -1620.6287  1680.7708  
264  49  -215.6504  -1149.8594  1169.9067  
265  51  -273.83255  -824.6861  868.95996  
266  47  -403.4488  -769.37317  868.73816  
267  50  -346.2487  -742.0134  818.8236  
268  913  -230.39996  -660.1278  699.1801  
269  912  -595.1589  -1229.5316  1366.0022  
270  913  -280.30054  -334.6528  436.5328  
271  912  -516.74475  -193.23633  551.69324  
272  914  -731.83264  -285.35638  785.4981  
273  51  -792.03894  -651.8405  1025.7786  
274  52  -307.78745  -872.9742  925.6441  
275  50  878.59955  -363.2062  950.7134  
276  51  -1150.572  -2344.998  2612.0552  
277  50  -59.007175  -366.2099  370.93332  
278  915  -392.93298  321.09076  507.44025  
279  913  -1063.7588  424.66824  1145.3933  
280  915  -1466.3622  -198.16255  1479.6914  
281  912  -887.4601  -883.8448  1252.5043  
282  914  2221.3882  -81.94891  2222.8992  
283  50  -1390.4628  -2689.1272  3027.3408  
284  50  34.249138  -975.10974  975.711  
285  52  -71.33267  228.6508  239.5194  
286  51  -989.74316  828.1577  1290.5181  
287  49  -2035.4377  469.34155  2088.8484  
288  914  -2274.8586  -563.77484  2343.6775  
289  913  3310.3687  -75.33159  3311.2258  
290  914  -1171.2798  -2457.56  2722.4067  
291  911  -36.23985  -1647.4396  1647.8381  
292  912  302.3534  -369.9172  477.76178  
293  51  -523.1324  762.98535  925.10223  
294  50  -2079.3186  1031.6267  2321.1677  
295  51  -4055.8628  230.9064  4062.4304  
296  51  3671.9275  -247.45546  3680.256  
297  51  -689.6383  -1840.7821  1965.7263  
298  913  -18.257113  -1901.3064  1901.394  
299  913  504.82455  -1003.6726  1123.4796  
300  913  116.572266  222.70042  251.36542  
301  914  -1446.5602  1101.776  1818.3638  
302  914  -5771.1255  1436.1233  5947.129  
303  50  3132.9187  -495.63293  3171.8813  
304  51  -129.74931  -1238.8478  1245.6238  
305  50  10.770691  -1708.2301  1708.264  
306  52  586.4296  -1430.1913  1545.7512  
307  50  670.6159  -573.9933  882.71967  
308  913  -276.92505  448.9825  527.5157  
309  914  -6876.9854  2733.6511  7400.39  
310  912  1781.2477  -554.4005  1865.5303  
311  913  265.14163  -805.47815  847.99475  
312  912  173.36815  -1313.6525  1325.0431  
313  50  580.3816  -1396.5597  1512.3563  
314  50  973.6632  -1168.4811  1520.976  
315  51  1129.4401  -865.7509  1423.0809  
316  50  -6914.2456  3800.2554  7889.7866  
317  51  116.31418  -323.2568  343.54614  
318  913  80.46891  -591.6588  597.10583  
319  913  260.53845  -878.0756  915.91327  
320  914  583.2565  -1025.8053  1180.0273  
321  914  912.72577  -1259.8668  1555.7418  
322  912  2292.2249  -2541.1147  3422.2156  
323  50  -5921.118  4165.301  7239.4316  
324  50  -1463.7627  155.21983  1471.9696  
325  49  -537.4123  -482.6099  722.3048  
326  51  143.57976  -645.452  661.22876  
327  49  595.4295  -498.9304  776.8319  
328  914  794.2342  -659.44324  1032.3145  
329  915  2925.4  -4088.5793  5027.3696  
330  912  -4204.353  3736.4863  5624.759  
331  913  -2334.953  792.5156  2465.783  
332  887  -1372.976  -304.33847  1406.3019  
333  49  -286.52792  -566.8711  635.1701  
334  50  465.39288  -137.0008  485.1389  
335  51  697.5287  345.07214  778.2166  
336  50  2822.5696  -4922.5654  5674.3765  
337  53  -2206.8801  2708.7039  3493.9084  
338  913  -2404.6804  1178.0243  2677.7283  
339  913  -2046.3112  -34.919212  2046.609  
340  912  -990.889  -663.8828  1192.7285  
341  913  232.30043  -137.74464  270.06866  
342  49  704.65204  1463.9836  1624.7407  
343  50  2148.7603  -4917.563  5366.5254  
344  50  -588.23773  1333.6492  1457.6157  
345  50  -1787.3175  1233.2375  2171.4922  
346  49  -2211.5352  262.69284  2227.0823  
347  73  -1623.0902  -580.76227  1723.8638  
348  914  -374.41217  -455.61377  589.7189  
349  914  733.07086  2195.3567  2314.5159  
350  914  1282.8762  -3955.139  4157.9917  
351  914  310.77548  175.21695  356.76654  
352  50  -933.6514  954.7395  1335.3773  
353  50  -1862.8975  469.3981  1921.125  
354  51  -1925.3397  -426.69485  1972.0552  
355  52  -1085.4542  -761.81506  1326.1119  
356  52  769.39935  2223.3647  2352.7275  
357  912  424.67084  -2574.381  2609.1729  
358  913  494.64374  -504.21548  706.3326  
359  914  -269.8626  482.53656  552.87195  
360  913  -1202.5327  462.45633  1288.3907  
361  914  -1672.4435  -135.37822  1677.9137  
362  50  -1528.9563  -838.65204  1743.8591  
363  50  469.38797  1551.6158  1621.0604  
364  49  -134.79886  -1186.1536  1193.7885  
365  51  166.50862  -503.1792  530.0136  
366  49  -52.885746  57.278496  77.959785  
367  913  -595.75366  216.63959  633.9205  
368  913  -983.2595  -22.19281  983.50995  
369  913  -1246.134  -533.5809  1355.5658  
370  913  -144.14493  488.58383  509.4035  
371  912  -422.26834  -255.609  493.60562  
372  50  -390.1377  -190.47467  434.15207  
373  50  -467.00916  -65.11157  471.5263  
374  50  -507.0554  -113.922295  519.69556  
375  52  -333.31198  -151.25385  366.0254  
376  50  262.86853  246.19946  360.15836  
377  913  -804.95996  -591.63257  998.9943  
378  913  -579.6902  23.481266  580.1656  
379  914  -825.7223  316.25656  884.2146  
380  914  -1187.6982  196.90399  1203.9095  
381  913  -1268.1644  -300.57794  1303.299  
382  50  -683.8214  -610.029  916.3772  
383  49  3489.938  1144.6392  3672.8552  
384  50  -1088.9241  -1241.7574  1651.5802  
385  49  -615.30457  -176.196  640.035  
386  50  -1074.6382  511.7413  1190.2632  
387  914  -2124.6316  629.884  2216.0356  
388  914  -3070.3928  -123.64385  3072.8813  
389  915  -3729.5703  -1320.6376  3956.4856  
390  912  9700.734  1806.5914  9867.523  
391  912  -80.74159  -1345.9261  1348.3458  
392  50  -223.0951  -643.3718  680.9543  
393  51  -1206.1213  409.44135  1273.7233  
394  51  -3428.6094  909.2826  3547.1335  
395  49  -7409.214  341.47714  7417.079  
396  50  -19863.934  -1878.7832  19952.586  
397  913  34538.816  2120.6006  34603.855  
398  913  10929.903  -935.7152  10969.884  
399  913  8835.1455  -924.78455  8883.413  
400  914  8625.988  10.156302  8625.994  
401  915  8833.913  944.3176  8884.242  
402  51  10927.951  957.9705  10969.859  
403  51  34510.152  -2049.439  34570.953  
404  49  -19906.355  1839.4163  19991.158  
405  50  -7416.5586  -357.65167  7425.1772  
406  51  -3430.5234  -914.76465  3550.3923  
407  914  -1208.5073  -408.85052  1275.7933  
408  914  -225.63493  645.7145  684.0017  
409  915  -82.74303  1346.113  1348.6537  
410  913  9699.135  -1785.6301  9862.134  
411  914  -3746.1104  1313.9662  3969.8677  
412  51  -3076.201  118.7059  3078.4905  
413  51  -2125.714  -632.95905  2217.949  
414  50  -1074.5111  -512.7785  1190.5947  
415  51  -618.0496  177.81436  643.11993  
416  52  -1091.0005  1241.3544  1652.6472  
417  913  3489.4114  -1137.8962  3670.2588  
418  913  -690.55566  610.8382  921.9493  
419  914  -1273.0819  297.83978  1307.4579  
420  913  -1188.833  -198.5047  1205.2916  
421  913  -826.1715  -316.07062  884.5677  
422  50  -580.19104  -23.167797  580.65344  
423  52  -806.6456  591.22906  1000.1145  
424  50  262.6787  -245.80724  359.7517  
425  51  -335.16754  152.29869  368.14694  
426  49  -508.58212  114.88939  521.39746  
427  914  -468.4537  65.826225  473.056  
428  912  -391.81033  189.86887  435.39124  
429  912  -423.80844  255.34015  494.785  
430  913  -145.33461  -487.2846  508.49625  
431  912  -1249.3418  532.30835  1358.0159  
432  49  -984.52673  21.387543  984.75903  
433  51  -595.60205  -216.6221  633.772  
434  50  -53.78152  -56.663902  78.1233  
435  50  163.82196  504.5354  530.46545  
436  50  -138.0741  1186.4181  1194.4255  
437  914  470.0526  -1549.635  1619.3573  
438  914  -1533.9221  837.9822  1747.8933  
439  913  -1672.2831  132.5641  1677.5292  
440  913  -1201.4484  -464.15323  1287.9893  
441  912  -270.2552  -480.70526  551.4666  
442  50  494.56155  508.06976  709.03174  
443  51  418.58844  2574.6985  2608.5032  
444  50  771.23016  -2220.0845  2350.2278  
445  50  -1090.0342  763.2466  1330.684  
446  49  -1927.1412  423.02625  1973.0242  
447  914  -1862.3706  -471.53464  1921.1375  
448  913  -928.70874  -955.5351  1332.4966  
449  913  313.0983  -170.75008  356.63165  
450  913  1274.409  3957.3914  4157.531  
451  873  734.82245  -2193.7158  2313.5154  
452  51  -378.3683  456.86725  593.20337  
453  51  -1625.0153  579.51166  1725.256  
454  51  -2211.8794  -267.21057  2227.9614  
455  50  -1783.3545  -1235.5725  2169.5605  
456  53  -583.06665  -1330.7512  1452.8818  
457  913  2139.0764  4922.863  5367.5156  
458  915  709.1919  -1465.338  1627.9338  
459  915  227.67642  139.85583  267.20068  
