n v(n)    Re(T)       Im(T)        Mod(T) 
   
0  53  364774.0  0.0  364774.0  
1  914  1857.0634  702.0039  1985.3196  
2  913  2152.5066  -1161.2281  2445.7588  
3  913  1799.9858  -408.3801  1845.7311  
4  912  2388.2122  -516.2533  2443.3738  
5  915  570.88116  4042.6619  4082.771  
6  913  1116.2201  1286.5273  1703.2616  
7  913  2609.1423  2162.6187  3388.8853  
8  914  1911.6472  3085.0227  3629.292  
9  912  2994.8901  3207.85  4388.584  
10  914  1469.2506  2193.8638  2640.4043  
11  913  690.4867  4643.058  4694.1196  
12  913  3227.8022  4555.0273  5582.7393  
13  912  2834.7395  5097.216  5832.4404  
14  912  4280.203  9455.416  10379.067  
15  914  6590.9185  21419.701  22410.797  
16  913  -46840.395  -210406.27  215557.0  
17  914  -2585.3418  -18795.514  18972.488  
18  914  -380.82672  -10019.763  10026.997  
19  915  409.55026  -5599.177  5614.1353  
20  914  1203.8076  -5382.6367  5515.608  
21  914  -350.8139  -4484.138  4497.8403  
22  912  335.7282  -2370.933  2394.585  
23  913  1497.9338  -4182.3657  4442.5205  
24  50  863.22955  -3902.2073  3996.5469  
25  49  2009.4318  -4002.1606  4478.293  
26  51  1134.2872  -2052.929  2345.4478  
27  50  -736.1365  -4534.633  4593.995  
28  52  2359.7417  -2214.132  3235.8557  
29  50  2262.6035  -1657.5901  2804.8137  
30  49  4010.1606  -1194.9226  4184.403  
31  50  5582.284  -3781.4375  6742.4897  
32  50  -17666.2  8078.04  19425.48  
33  50  -1286.8193  1179.4982  1745.6002  
34  51  -449.0438  -1438.9515  1507.389  
35  51  189.64923  -1415.1188  1427.7703  
36  50  579.5032  -2830.8684  2889.5745  
37  49  1310.5969  2903.4492  3185.5425  
38  50  754.96454  646.69574  994.07587  
39  51  2035.7931  369.2674  2069.0122  
40  49  2043.1012  1752.969  2692.0554  
41  52  3323.436  1352.7494  3588.197  
42  51  2080.931  974.8128  2297.9412  
43  51  1557.3798  4182.241  4462.799  
44  51  3953.4744  2845.875  4871.2383  
45  51  4013.676  3262.06  5172.101  
46  52  7262.7085  5968.7964  9400.717  
47  51  15846.456  17577.916  23666.291  
48  51  -37603.6  -48591.945  61442.723  
49  49  -7605.313  -11966.89  14179.112  
50  51  -4096.722  -7368.2676  8430.569  
51  913  -1818.0822  -4240.585  4613.89  
52  913  -1168.3754  -4504.1753  4653.2456  
53  914  -1333.8228  -3693.9482  3927.383  
54  912  -413.9663  -1564.405  1618.2494  
55  912  -160.4037  -3722.3892  3725.8435  
56  915  -470.59128  -3599.1357  3629.7705  
57  913  322.77518  -4950.1133  4960.6255  
58  914  639.4195  -2519.7473  2599.6123  
59  913  -1909.7987  -3817.0945  4268.201  
60  915  752.68677  -3857.6902  3930.4338  
61  914  1067.8572  -3298.1362  3466.702  
62  913  3531.9824  -4116.215  5423.8477  
63  914  6412.078  -9945.426  11833.269  
64  913  -10397.314  11910.397  15810.178  
65  914  -1867.3713  2957.1458  3497.3972  
66  914  -1873.4163  -3.276453  1873.4192  
67  914  -1174.51  -926.12067  1495.7183  
68  913  -2209.951  -3448.077  4095.4995  
69  914  1141.235  1539.7267  1916.553  
70  913  325.9913  258.30557  415.9232  
71  913  688.99097  -620.2739  927.06433  
72  912  1353.4746  678.03174  1513.8099  
73  913  2342.87  -179.81337  2349.7603  
74  905  1558.095  -675.7709  1698.3304  
75  51  2013.3444  3340.8577  3900.6265  
76  50  3446.4873  1310.7616  3687.3257  
77  49  3573.3877  1402.2235  3838.6626  
78  50  7033.192  1552.417  7202.485  
79  53  20626.176  8749.072  22405.031  
80  51  -23460.117  -11889.668  26300.975  
81  49  -7557.3896  -5100.4893  9117.518  
82  50  -5098.8247  -3450.9233  6156.857  
83  50  -2492.8674  -1863.644  3112.4841  
84  51  -2605.8286  -2034.4735  3305.9683  
85  51  -1924.7228  -2485.025  3143.232  
86  51  -303.13248  -444.6654  538.1604  
87  50  -998.98596  -2093.2285  2319.3918  
88  50  -1136.0223  -2150.0864  2431.752  
89  50  -1534.597  -4326.145  4590.263  
90  50  -67.693665  -2399.3928  2400.3477  
91  52  -2315.6604  -2393.8147  3330.5603  
92  50  -1095.7816  -3782.05  3937.5933  
93  51  -687.5496  -3280.595  3351.8691  
94  50  1163.5552  -5306.161  5432.238  
95  51  2478.0637  -15969.777  16160.897  
96  50  -3045.0322  10284.787  10726.093  
97  50  -282.05203  3568.8232  3579.9514  
98  49  -1414.9484  1498.7814  2061.1707  
99  49  -1231.4335  60.322914  1232.91  
100  51  -4422.9985  -2236.9377  4956.491  
101  916  427.10696  722.2306  839.06934  
102  915  12.819443  -70.168274  71.32969  
103  913  -578.1939  -840.04944  1019.7996  
104  913  478.87628  198.65195  518.4449  
105  913  831.83374  -807.5886  1159.3734  
106  913  -15.468269  -1764.9017  1764.9696  
107  913  2034.8387  2269.1787  3047.9077  
108  912  2407.4011  486.73834  2456.1135  
109  911  2346.7756  540.0113  2408.1047  
110  913  4154.466  -1194.4257  4322.7583  
111  915  18906.193  -716.6356  18919.771  
112  913  -10397.485  -133.85515  10398.348  
113  912  -4576.68  -1190.6647  4729.026  
114  912  -3743.0085  -550.35547  3783.2532  
115  912  -1562.0795  -210.5316  1576.203  
116  914  -2206.729  750.35754  2330.813  
117  915  -1980.394  -998.8204  2218.0176  
118  914  411.50812  329.136  526.9435  
119  913  -635.17194  -476.9956  794.3351  
120  913  -549.6296  -523.1753  758.8182  
121  913  -2441.8586  -2554.501  3533.8574  
122  913  -576.8031  -1569.489  1672.1237  
123  913  -1721.4805  -894.5837  1940.045  
124  911  -1999.7428  -2410.4695  3131.9856  
125  50  -1692.6261  -1806.2019  2475.3481  
126  51  -913.7524  -3832.732  3940.1494  
127  50  -5074.192  -17986.656  18688.693  
128  50  681.545  5373.517  5416.5664  
129  51  1242.5281  2145.2148  2479.077  
130  52  69.53348  1711.6392  1713.0509  
131  53  -102.67021  411.48843  424.10364  
132  49  -5034.338  -184.13577  5037.704  
133  51  -318.501  467.85992  565.9822  
134  52  -290.02078  -307.3417  422.57657  
135  50  -1298.9756  -585.4383  1424.8073  
136  50  -51.691963  -22.097725  56.217155  
137  49  -298.31873  -428.9615  522.4959  
138  50  -1921.6254  -1799.9935  2632.987  
139  50  1629.3872  1180.2156  2011.9174  
140  50  1357.665  198.19595  1372.0554  
141  51  1472.8859  620.9834  1598.4408  
142  51  972.6826  -1376.065  1685.131  
143  51  12344.267  -6470.714  13937.397  
144  50  -2291.1133  1285.5867  2627.153  
145  51  -1756.3556  -504.0032  1827.2395  
146  50  -1892.533  160.27014  1899.3071  
147  49  -399.50266  -230.01164  460.98563  
148  51  -388.60727  2481.1677  2511.4158  
149  49  -1377.6293  186.39597  1390.182  
150  50  1208.0906  278.527  1239.7823  
151  60  456.891  411.77087  615.06476  
152  914  949.378  236.65564  978.42957  
153  914  -2024.759  -748.55774  2158.7004  
154  913  -464.20767  -495.56232  679.0219  
155  913  -425.86295  39.49229  427.6902  
156  915  -1607.3389  -833.164  1810.442  
157  913  -899.21  -61.232197  901.2924  
158  914  -547.36096  -940.6571  1088.3197  
159  914  -12210.511  -14408.754  18886.734  
160  913  262.78156  802.22174  844.1646  
161  912  1107.3215  -130.74638  1115.0138  
162  915  1032.2478  663.98804  1227.3612  
163  914  892.2376  -527.0095  1036.2562  
164  913  -4068.5398  1377.5782  4295.432  
165  912  -577.36865  704.7464  911.0555  
166  914  -479.25793  -502.88998  694.68445  
167  914  -1638.8533  -259.82742  1659.3223  
168  913  -407.5885  -359.82056  543.69037  
169  913  -593.5088  76.65214  598.4382  
170  913  -3324.1082  -742.7294  3406.0742  
171  912  753.2927  317.5494  817.4886  
172  912  621.0603  73.862206  625.4371  
173  913  1296.9133  617.7925  1436.5416  
174  913  -696.9959  -149.50764  712.8505  
175  49  5054.158  -6964.3506  8605.039  
176  48  578.5045  -179.27542  605.64606  
177  48  -714.9986  -1198.3644  1395.4569  
178  50  -1052.7094  -281.6254  1089.7292  
179  50  -537.5082  -1442.893  1539.758  
180  51  1681.4032  2389.75  2921.9895  
181  51  -590.3412  813.53827  1005.16034  
182  51  1417.8424  -246.66928  1439.1396  
183  51  1408.0988  313.47644  1442.5704  
184  50  2231.0767  -283.28348  2248.9893  
185  50  -760.92053  171.02438  779.90344  
186  50  320.05203  416.2641  525.0801  
187  52  945.54315  58.933636  947.378  
188  52  -418.46512  -57.262466  422.36484  
189  51  828.1441  467.99506  951.2319  
190  52  2470.4067  736.4572  2577.8438  
191  51  -15323.166  -7063.5635  16872.857  
192  50  -2017.5599  -913.3343  2214.6619  
193  51  -521.2846  -1335.4498  1433.5842  
194  51  767.7845  -496.27832  914.2129  
195  51  831.8476  -1948.0217  2118.197  
196  51  -2528.0618  1770.3462  3086.296  
197  52  -261.81204  918.95654  955.5243  
198  50  -668.71423  -629.6771  918.5162  
199  50  -1616.1527  49.461735  1616.9094  
200  49  -883.8567  -823.0989  1207.7642  
201  52  -264.57297  180.96692  320.5431  
202  913  -3604.9702  650.86597  3663.255  
203  913  -248.11224  -104.87117  269.36526  
204  914  -101.345184  16.03661  102.60614  
205  913  1351.8303  138.65541  1358.9226  
206  914  -713.32263  633.30365  953.8882  
207  913  470.38718  -3905.4946  3933.72  
208  914  773.5542  -954.54956  1228.6378  
209  913  -1067.525  -1311.723  1691.2206  
210  914  -1276.3949  -599.0987  1410.0011  
211  912  -2438.106  -2104.2227  3220.5767  
212  913  2622.5554  1108.6205  2847.2507  
213  913  38.973827  864.5711  865.4491  
214  914  872.50995  -710.4804  1125.1915  
215  914  1538.9458  -191.77051  1550.8483  
216  914  2459.3047  -1516.93  2889.5078  
217  913  178.63393  -64.8823  190.05208  
218  912  1261.704  646.2596  1417.5853  
219  914  1748.4753  -535.86926  1828.7488  
220  915  637.83435  -132.156  651.38153  
221  913  2124.93  -423.75815  2166.7712  
222  916  6109.356  -612.02637  6139.9355  
223  913  -13118.946  40.121243  13119.008  
224  913  -3520.913  -78.86241  3521.7961  
225  51  -2116.0847  -823.0724  2270.5203  
226  51  9.867614  -775.27563  775.33844  
227  51  -188.25558  -2583.4822  2590.332  
228  50  -1435.3855  1246.7778  1901.2592  
229  50  374.47455  758.8239  846.1944  
230  48  -648.89453  -500.46973  819.4718  
231  49  -1275.9414  256.91385  1301.5496  
232  51  -1601.0835  -1038.7565  1908.529  
233  48  -0.07782841  -336.46854  336.46854  
234  50  -2963.2175  1703.4375  3417.9463  
235  49  -1122.8988  -40.3302  1123.6228  
236  53  -744.0779  182.89705  766.22656  
237  51  924.42334  -730.2768  1178.0759  
238  51  -531.0594  -66.72162  535.2344  
239  50  -631.0157  -570.4396  850.6363  
240  49  607.00055  -651.49365  890.44574  
241  51  -1303.2303  -563.861  1419.9819  
242  50  -1589.1595  -160.34933  1597.2289  
243  52  -4935.3667  -857.0917  5009.2363  
244  50  2054.029  -241.83037  2068.216  
245  51  271.19467  675.8856  728.2637  
246  53  -63.149292  -635.65906  638.78815  
247  49  1000.0296  -385.22357  1071.6605  
248  50  1434.9409  -2339.5562  2744.5544  
249  51  58.77107  -719.1717  721.5691  
250  50  1864.954  270.10632  1884.4126  
251  53  1849.5211  -1189.7727  2199.156  
252  913  1063.6844  -502.1727  1176.2661  
253  913  1940.5365  -1691.8348  2574.4878  
254  913  7599.169  -4462.1387  8812.381  
255  913  -7725.008  3765.3066  8593.793  
256  915  -3048.4714  1240.2202  3291.0977  
257  914  -2488.1438  577.7359  2554.3372  
258  913  -400.5979  -297.82428  499.1773  
259  915  -1206.6334  -1925.1276  2272.0212  
260  913  -1038.3007  680.8385  1241.6156  
261  914  949.4901  225.64401  975.9338  
262  912  -396.9849  -445.41748  596.6521  
263  914  -634.1355  343.44858  721.169  
264  912  -2292.7139  -627.92615  2377.147  
265  913  -178.07213  -988.75665  1004.6638  
266  914  -1719.2966  1977.9126  2620.7097  
267  914  -1534.6451  357.47165  1575.729  
268  913  -1056.0219  627.40424  1228.3396  
269  913  65.35181  -1233.3402  1235.0704  
270  912  -1658.9374  -1299.9298  2107.5793  
271  913  142.18631  884.7364  896.089  
272  913  872.31116  -486.1899  998.6528  
273  916  -598.55865  154.53029  618.1845  
274  913  -935.3506  365.40775  1004.19293  
275  909  -6118.551  2090.736  6465.8984  
276  51  600.9433  -595.7446  846.19415  
277  51  124.67705  487.47632  503.16748  
278  50  -884.7068  6.4510765  884.73035  
279  49  372.34998  -91.46718  383.4198  
280  50  2.140705  -2051.8994  2051.9004  
281  51  -941.6394  -795.40125  1232.6183  
282  51  1747.1967  -260.7497  1766.5465  
283  51  1284.5109  -1562.2502  2022.5217  
284  51  994.86487  -692.6131  1212.2166  
285  51  646.2993  -1933.1608  2038.3359  
286  50  5611.3164  -8213.4375  9947.232  
287  49  -2672.5098  3397.675  4322.789  
288  50  -1570.5691  1428.2596  2122.8784  
289  50  -1658.5627  1482.7601  2224.7266  
290  51  -116.16762  41.99783  123.526245  
291  50  -1099.9525  -555.42004  1232.2285  
292  51  -986.67316  536.58856  1123.1434  
293  51  1170.2632  -552.94165  1294.3185  
294  50  66.61008  -608.8473  612.48016  
295  50  312.98553  -40.899273  315.64648  
296  50  -2319.6882  171.23553  2325.9998  
297  51  -622.883  -1287.0646  1429.8666  
298  51  -526.6611  1483.5532  1574.2623  
299  50  -1403.9353  723.91174  1579.583  
300  52  -729.5611  1085.3201  1307.7382  
301  51  -588.0748  -967.29016  1132.0258  
302  79  -3955.4897  -1528.8103  4240.656  
303  913  609.739  665.23804  902.3986  
304  913  983.6296  -996.74414  1400.3663  
305  913  339.5721  -109.28029  356.72314  
306  914  213.8074  -244.09532  324.49365  
307  913  -4995.0513  5036.835  7093.6763  
308  914  -419.3953  169.17227  452.22964  
309  913  -160.08423  509.87784  534.4178  
310  914  -1113.2383  912.8605  1439.6575  
311  913  80.39203  450.40796  457.52618  
312  914  -812.80695  -969.75507  1265.3379  
313  914  -2008.4462  228.90239  2021.448  
314  912  1073.2444  -390.52615  1142.0876  
315  913  514.15234  -1311.7859  1408.9481  
316  914  919.7287  -548.92993  1071.0859  
317  915  -456.92352  -859.9641  973.81586  
318  912  1444.3048  -9403.176  9513.45  
319  913  -184.62154  1033.2556  1049.62  
320  915  -717.1734  476.04004  860.7856  
321  912  -782.18555  1349.7065  1559.975  
322  914  -45.973194  -215.87819  220.71912  
323  912  102.191185  251.11328  271.11053  
324  917  -711.85724  833.95874  1096.4615  
325  913  943.37775  -1145.6732  1484.0919  
326  52  375.91913  -952.74786  1024.2284  
327  50  1034.8751  -1032.8115  1462.0759  
328  50  -1579.4526  832.38513  1785.3671  
329  49  -913.43475  -1130.693  1453.5576  
330  50  210.14037  494.16537  536.9901  
331  52  -896.0647  736.3203  1159.7843  
332  49  83.36319  1039.7792  1043.1156  
333  51  -233.6237  -619.16504  661.7744  
334  49  -5910.408  129.34766  5911.823  
335  51  -17.046316  212.22006  212.90358  
336  50  190.61131  -1623.0308  1634.1853  
337  52  577.4992  -1165.2596  1300.5135  
338  51  471.29688  -2209.3784  2259.087  
339  51  -2212.1423  6296.489  6673.7803  
340  51  -490.5325  1144.8171  1245.4832  
341  50  -253.80803  586.23  638.81464  
342  51  -871.34106  1607.2228  1828.2233  
343  51  81.91241  718.3537  723.0088  
344  50  -759.62286  97.72001  765.88257  
345  51  -2226.3333  1853.6002  2896.9626  
346  50  429.18576  -8.18631  429.26382  
347  51  -105.96715  -648.2937  656.89703  
348  50  985.0407  -437.05814  1077.648  
349  48  -361.45712  722.1227  807.5347  
350  51  -2385.4575  -7364.453  7741.161  
351  51  -63.473698  -860.0236  862.3628  
352  54  -991.56525  -322.22284  1042.6069  
353  913  -631.46576  907.3496  1105.4557  
354  914  -1082.2472  -516.7361  1199.2811  
355  914  1434.6947  -93.32712  1437.7269  
356  914  -51.40757  1021.2601  1022.5531  
357  914  401.78665  -1256.8787  1319.5365  
358  914  381.01508  -1228.0605  1285.8092  
359  912  1025.1863  -2379.3792  2590.84  
360  914  -604.6048  776.13873  983.8385  
361  914  -776.4013  -779.76886  1100.3811  
362  914  415.13876  -568.9061  704.2687  
363  914  -426.4443  366.14133  562.06244  
364  912  775.92926  340.3539  847.29395  
365  913  860.1535  -1173.9789  1455.3661  
366  913  -5891.643  2810.9705  6527.8647  
367  915  -959.0399  600.5457  1131.5532  
368  913  -1060.5083  -1258.0745  1645.4268  
369  914  -141.1126  -1824.1083  1829.5583  
370  914  -1041.2533  -4175.053  4302.9385  
371  914  416.79767  5280.985  5297.407  
372  913  258.7022  1407.3287  1430.9092  
373  913  -173.26355  488.7921  518.59235  
374  913  -366.39246  1766.3079  1803.9088  
375  912  23.360474  697.9979  698.38873  
376  49  -224.8754  361.0695  425.37057  
377  49  -1301.9259  3104.415  3366.3635  
378  51  89.66701  678.3995  684.2997  
379  50  -262.92496  252.1414  364.2867  
380  51  1016.27  -598.0624  1179.1876  
381  51  719.0677  1580.8137  1736.6721  
382  49  -3805.135  -3667.7798  5285.041  
383  48  -771.8375  -1268.876  1485.1866  
384  52  -1600.8513  -295.51688  1627.899  
385  51  -904.94653  963.38666  1321.7572  
386  50  -2852.6729  646.7212  2925.0625  
387  50  1665.567  -1168.8667  2034.7882  
388  50  640.6767  946.67505  1143.0924  
389  50  -52.358265  -929.59485  931.0682  
390  52  194.91132  -1230.8392  1246.1764  
391  50  52.98067  -3266.7712  3267.2007  
392  52  -31.179218  159.49475  162.51375  
393  51  -346.5317  -667.46875  752.063  
394  50  198.53041  -1385.8517  1399.9998  
395  51  -189.22284  -124.665695  226.59836  
396  49  927.7309  -755.2558  1196.2843  
397  50  1456.5869  -3039.0352  3370.0713  
398  49  -3780.9758  4564.8877  5927.392  
399  51  -1004.42004  1522.2667  1823.775  
400  51  -1707.997  -3.0792031  1707.9998  
401  49  -1001.3002  -1526.2964  1825.4268  
402  52  -3767.9321  -4568.304  5921.716  
403  913  1452.9541  3046.4954  3375.2349  
404  913  925.55396  760.1319  1197.6855  
405  913  -188.93604  126.18679  227.2002  
406  913  196.57767  1387.4325  1401.2893  
407  914  -348.28677  668.3193  753.62744  
408  914  -29.96739  -156.56332  159.40552  
409  912  46.705235  3267.6492  3267.983  
410  914  192.49522  1231.0654  1246.0243  
411  913  -55.469532  926.54156  928.2005  
412  914  642.5342  -945.35864  1143.0455  
413  915  1661.4066  1171.539  2032.9229  
414  914  -2854.5784  -654.73193  2928.7012  
415  912  -904.2699  -963.57306  1321.4299  
416  913  -1602.1941  295.13336  1629.15  
417  913  -775.2811  1267.9794  1486.2141  
418  913  -3810.4338  3657.517  5281.7456  
419  913  726.4077  -1583.391  1742.0664  
420  914  1015.96844  598.31354  1179.0552  
421  914  -262.12726  -254.47975  365.33636  
422  912  90.3412  -681.65045  687.61096  
423  913  -1295.4231  -3107.2495  3366.4702  
424  914  -223.42902  -359.54364  423.31094  
425  913  24.831512  -697.5566  697.9984  
426  902  -362.2753  -1767.7272  1804.4674  
427  52  -171.66263  -488.7025  517.9751  
428  49  261.287  -1405.4978  1429.5786  
429  50  426.1857  -5273.713  5290.906  
430  49  -1051.0946  4179.3564  4309.5034  
431  49  -145.6781  1824.7904  1830.5961  
432  51  -1064.7662  1254.9368  1645.7805  
433  51  -960.5307  -603.39087  1134.3279  
434  51  -5884.0063  -2822.253  6525.844  
435  49  862.50433  1178.1338  1460.1072  
436  50  778.3488  -337.78723  848.48517  
437  51  -424.44644  -364.5939  559.53864  
438  50  414.39392  572.37305  706.63513  
439  51  -775.1228  780.3647  1099.9021  
440  49  -601.4585  -773.8098  980.06836  
441  50  1022.01434  2383.6572  2593.518  
442  50  378.60498  1229.2825  1286.2648  
443  49  399.74457  1256.2667  1318.333  
444  51  -48.797264  -1019.234  1020.4014  
445  49  1435.3756  98.3995  1438.7445  
446  50  -1084.01  515.66315  1200.4109  
447  49  -631.48456  -906.124  1104.4607  
448  49  -991.428  323.80017  1042.965  
449  50  -66.08501  865.0655  867.58606  
450  51  -2399.339  7358.43  7739.7236  
451  50  -358.54092  -727.10516  810.6994  
452  51  984.75104  437.32425  1077.4911  
453  913  -107.69384  645.4485  654.3712  
454  915  426.77844  5.9904346  426.8205  
455  913  -2223.873  -1859.0089  2898.5386  
456  914  -760.412  -100.28369  766.9962  
457  914  83.56921  -719.709  724.54456  
458  913  -865.60156  -1611.7261  1829.4608  
459  913  -252.78629  -587.33405  639.42334  
460  912  -488.7661  -1147.553  1247.3052  
